$DSC2
$Conventional
$Adiabatic Mode
$Scanrate Corrected-Programmed
$Baseline Subtraction Method: 0 File: NONE
$DP Corrected
$RTD Corrected
$MidGain FB,  0.75 
$ADCGainCode:  0 
$ 10 
$NOT
$ 10 
$ 0            20            25           False
$ 0 
$ 15           80            60            5             0             2             2             0 
$ 15           80            60            5             0             2             2             0 
$ 15           80            60            5             0             2             2             0 
$ 15           80            60            5             0             2             2             0 
$ 15           80            60            5             0             2             2             0 
$ 15           80            60            5             0             2             2             0 
$ 15           80            60            5             0             2             2             0 
$ 15           80            60            5             0             2             2             0 
$ 15           80            60            5             0             2             2             0 
$ 15           80            60            5             0             2             2             0 
# 0 
# 0.5197
# 0
# 11.63 
# 0.75 
# 10.743 
? 
% VPDSC02.06.462
% 0.51971 
% 11.63 
%-0.995356 , 100.17434 
% 3.676 
% 250 ,       -22.5 
% 1000.3 , 1000.3 
% 0.88219 ,-0.02026 
%-0.08266 , 0.02515 
% 1 , 0.055 
% 0.0522 
% 1 , 130 
% 0.080433 , 0.056504 
% 0 , 8 
% 0 , 18 
% 0.072589046661 ,-0.003235099108 , 8.240903228419E-06 , 2.357972384211E-07 ,-7.440723641986E-10 
% VPViewer2000 Ver: 1.4.14
@4
17.40546,-3.021378,2.00
17.43868,-3.021446,4.00
17.47231,-3.021257,6.00
17.50510,-3.020995,8.00
17.53661,-3.020588,10.00
17.57060,-3.020224,12.00
17.60452,-3.020326,14.00
17.63655,-3.020090,16.00
17.66912,-3.019890,18.00
17.70392,-3.019495,20.00
17.73758,-3.019330,22.00
17.76839,-3.019397,24.00
17.80062,-3.019621,26.00
17.83403,-3.019352,28.00
17.86629,-3.019604,30.00
17.89883,-3.019500,32.00
17.93244,-3.019222,34.00
17.96194,-3.019546,36.00
17.99557,-3.019505,38.00
18.03026,-3.019496,40.00
18.06103,-3.019839,42.00
18.09430,-3.020331,44.00
18.13009,-3.020181,46.00
18.16319,-3.020379,48.00
18.19639,-3.020319,50.00
18.22791,-3.020485,52.00
18.26135,-3.020324,54.00
18.29308,-3.020272,56.00
18.32690,-3.020407,58.00
18.35987,-3.020506,60.00
18.39173,-3.020298,62.00
18.42652,-3.020972,64.00
18.45883,-3.020621,66.00
18.49012,-3.020558,68.00
18.52347,-3.020842,70.00
18.55778,-3.020343,72.00
18.58902,-3.020850,74.00
18.62149,-3.020845,76.00
18.65512,-3.020859,78.00
18.68738,-3.020681,80.00
18.72158,-3.020543,82.00
18.75432,-3.020427,84.00
18.78616,-3.020372,86.00
18.81726,-3.020377,88.00
18.85031,-3.019419,90.00
18.88470,-3.019098,92.00
18.91694,-3.018906,94.00
18.94794,-3.018571,96.00
18.98135,-3.018592,98.00
19.01445,-3.018323,100.00
19.04900,-3.018001,102.00
19.08017,-3.017632,104.00
19.11507,-3.017115,106.00
19.14906,-3.016854,108.00
19.17792,-3.016809,110.00
19.21245,-3.017377,112.00
19.24803,-3.016775,114.00
19.27972,-3.016535,116.00
19.31108,-3.016516,118.00
19.34486,-3.016244,120.00
19.37594,-3.015927,122.00
19.41024,-3.015998,124.00
19.44534,-3.015665,126.00
19.47954,-3.014964,128.00
19.50987,-3.015012,130.00
19.54232,-3.014430,132.00
19.57500,-3.013714,134.00
19.60857,-3.013431,136.00
19.64318,-3.013243,138.00
19.67521,-3.013236,140.00
19.71050,-3.013168,142.00
19.74468,-3.012707,144.00
19.77619,-3.012321,146.00
19.80915,-3.012427,148.00
19.84331,-3.012061,150.00
19.87523,-3.011900,152.00
19.90791,-3.011502,154.00
19.94020,-3.011174,156.00
19.97304,-3.010798,158.00
20.00638,-3.010814,160.00
20.03935,-3.010910,162.00
20.07311,-3.010772,164.00
20.10678,-3.010709,166.00
20.14217,-3.010768,168.00
20.17639,-3.010758,170.00
20.20813,-3.010666,172.00
20.24068,-3.011375,174.00
20.27512,-3.011609,176.00
20.30868,-3.011942,178.00
20.34075,-3.012752,180.00
20.37489,-3.012831,182.00
20.40546,-3.012687,184.00
20.43890,-3.012790,186.00
20.47101,-3.012836,188.00
20.50880,-3.012052,190.00
20.54353,-3.011657,192.00
20.57503,-3.011140,194.00
20.60843,-3.011311,196.00
20.64280,-3.010880,198.00
20.67725,-3.010765,200.00
20.70892,-3.010854,202.00
20.74344,-3.010958,204.00
20.77560,-3.011911,206.00
20.80822,-3.012330,208.00
20.84311,-3.012406,210.00
20.87840,-3.012480,212.00
20.91112,-3.012680,214.00
20.94496,-3.012785,216.00
20.97915,-3.012708,218.00
21.01108,-3.012838,220.00
21.04243,-3.012506,222.00
21.07614,-3.011801,224.00
21.11064,-3.011653,226.00
21.14413,-3.011615,228.00
21.17848,-3.010931,230.00
21.21133,-3.010435,232.00
21.24429,-3.010687,234.00
21.27774,-3.010382,236.00
21.31429,-3.010159,238.00
21.34909,-3.010477,240.00
21.38151,-3.010452,242.00
21.41498,-3.010361,244.00
21.44829,-3.010475,246.00
21.48078,-3.010402,248.00
21.51376,-3.010480,250.00
21.54468,-3.009616,252.00
21.58138,-3.009494,254.00
21.61636,-3.009908,256.00
21.65040,-3.009523,258.00
21.68161,-3.009582,260.00
21.71532,-3.009333,262.00
21.74689,-3.008819,264.00
21.77826,-3.008613,266.00
21.81159,-3.008223,268.00
21.84525,-3.008021,270.00
21.87938,-3.007718,272.00
21.91431,-3.008301,274.00
21.94822,-3.008392,276.00
21.98500,-3.009045,278.00
22.02117,-3.009254,280.00
22.05179,-3.008754,282.00
22.08452,-3.009013,284.00
22.11717,-3.009369,286.00
22.14566,-3.009622,288.00
22.18181,-3.009618,290.00
22.21221,-3.009828,292.00
22.24453,-3.010080,294.00
22.27830,-3.010221,296.00
22.31241,-3.009792,298.00
22.34738,-3.009886,300.00
22.37946,-3.010686,302.00
22.41453,-3.011052,304.00
22.44602,-3.011148,306.00
22.47878,-3.010879,308.00
22.51144,-3.010471,310.00
22.54660,-3.010381,312.00
22.57996,-3.009937,314.00
22.61162,-3.009637,316.00
22.64640,-3.009409,318.00
22.67920,-3.009648,320.00
22.70879,-3.009268,322.00
22.74155,-3.008805,324.00
22.77581,-3.008254,326.00
22.81019,-3.008476,328.00
22.84147,-3.008097,330.00
22.87443,-3.007761,332.00
22.90850,-3.008044,334.00
22.94029,-3.007919,336.00
22.97283,-3.007810,338.00
23.00637,-3.007498,340.00
23.03935,-3.007101,342.00
23.07390,-3.006550,344.00
23.10598,-3.007221,346.00
23.13958,-3.007418,348.00
23.17341,-3.007117,350.00
23.20571,-3.007214,352.00
23.23860,-3.007031,354.00
23.27189,-3.006736,356.00
23.30627,-3.006869,358.00
23.33952,-3.006687,360.00
23.37273,-3.007325,362.00
23.40366,-3.007708,364.00
23.43744,-3.007519,366.00
23.46863,-3.007034,368.00
23.50216,-3.007199,370.00
23.53533,-3.007584,372.00
23.56838,-3.007660,374.00
23.60300,-3.007463,376.00
23.63528,-3.006697,378.00
23.66609,-3.006011,380.00
23.69870,-3.005888,382.00
23.73053,-3.006012,384.00
23.76602,-3.006350,386.00
23.79840,-3.006901,388.00
23.83023,-3.007338,390.00
23.86062,-3.007441,392.00
23.89851,-3.007684,394.00
23.93200,-3.007808,396.00
23.96552,-3.006824,398.00
23.99967,-3.006185,400.00
24.03196,-3.005494,402.00
24.06480,-3.004981,404.00
24.09896,-3.005241,406.00
24.13191,-3.005703,408.00
24.16488,-3.005645,410.00
24.19785,-3.005626,412.00
24.22951,-3.006108,414.00
24.26189,-3.005994,416.00
24.29514,-3.006299,418.00
24.32872,-3.006135,420.00
24.36366,-3.006182,422.00
24.39429,-3.006048,424.00
24.42603,-3.005658,426.00
24.45751,-3.005648,428.00
24.49160,-3.005513,430.00
24.52558,-3.005442,432.00
24.55743,-3.005487,434.00
24.58895,-3.005792,436.00
24.62143,-3.006188,438.00
24.65405,-3.006346,440.00
24.68550,-3.006112,442.00
24.72049,-3.006103,444.00
24.75326,-3.006119,446.00
24.78637,-3.006336,448.00
24.82109,-3.006521,450.00
24.85382,-3.006503,452.00
24.88900,-3.006342,454.00
24.92034,-3.006532,456.00
24.95570,-3.007075,458.00
24.99094,-3.007148,460.00
25.02168,-3.006758,462.00
25.05710,-3.007049,464.00
25.08836,-3.006875,466.00
25.12111,-3.007473,468.00
25.15593,-3.007670,470.00
25.19063,-3.007685,472.00
25.22034,-3.008227,474.00
25.25522,-3.008161,476.00
25.28930,-3.008015,478.00
25.32189,-3.008529,480.00
25.35280,-3.008576,482.00
25.38730,-3.008592,484.00
25.41762,-3.008800,486.00
25.45366,-3.009062,488.00
25.48355,-3.009501,490.00
25.51470,-3.010194,492.00
25.54855,-3.009956,494.00
25.58186,-3.010434,496.00
25.61543,-3.010727,498.00
25.64856,-3.011142,500.00
25.68347,-3.011754,502.00
25.71306,-3.011891,504.00
25.74744,-3.012414,506.00
25.78121,-3.012785,508.00
25.81169,-3.013224,510.00
25.84306,-3.013997,512.00
25.87731,-3.015036,514.00
25.90960,-3.015967,516.00
25.94358,-3.016584,518.00
25.97721,-3.017506,520.00
26.00824,-3.018248,522.00
26.04246,-3.018823,524.00
26.07386,-3.019621,526.00
26.10529,-3.020083,528.00
26.13616,-3.020797,530.00
26.17027,-3.021717,532.00
26.20270,-3.022407,534.00
26.23401,-3.023737,536.00
26.26615,-3.024435,538.00
26.29862,-3.025151,540.00
26.33422,-3.026350,542.00
26.36465,-3.027458,544.00
26.39801,-3.028334,546.00
26.43324,-3.029853,548.00
26.46674,-3.031411,550.00
26.50055,-3.033114,552.00
26.53254,-3.034393,554.00
26.56620,-3.036593,556.00
26.59798,-3.038209,558.00
26.63124,-3.040241,560.00
26.66298,-3.042077,562.00
26.69611,-3.043914,564.00
26.73222,-3.046402,566.00
26.76687,-3.049098,568.00
26.79638,-3.051294,570.00
26.82973,-3.054287,572.00
26.86483,-3.056985,574.00
26.89676,-3.060676,576.00
26.93033,-3.064828,578.00
26.96406,-3.068523,580.00
26.99630,-3.072425,582.00
27.02833,-3.077267,584.00
27.06400,-3.081822,586.00
27.09681,-3.087151,588.00
27.13003,-3.093295,590.00
27.16393,-3.100039,592.00
27.19787,-3.107018,594.00
27.23132,-3.114786,596.00
27.26410,-3.123502,598.00
27.29916,-3.133374,600.00
27.32949,-3.143812,602.00
27.36062,-3.156759,604.00
27.39584,-3.170823,606.00
27.42962,-3.186890,608.00
27.46316,-3.205686,610.00
27.49562,-3.227087,612.00
27.52739,-3.252015,614.00
27.55905,-3.281963,616.00
27.59176,-3.317176,618.00
27.62564,-3.359539,620.00
27.65884,-3.411487,622.00
27.69350,-3.475899,624.00
27.72659,-3.555590,626.00
27.76036,-3.656528,628.00
27.79421,-3.787221,630.00
27.82542,-3.960353,632.00
27.85922,-4.190084,634.00
27.89362,-4.493611,636.00
27.92525,-4.866538,638.00
27.95779,-5.275466,640.00
27.99418,-5.733404,642.00
28.02869,-6.261533,644.00
28.06127,-6.867671,646.00
28.09237,-7.568060,648.00
28.12526,-8.278146,650.00
28.16072,-8.741520,652.00
28.19312,-8.729472,654.00
28.22416,-8.272945,656.00
28.25790,-7.567135,658.00
28.29224,-6.838524,660.00
28.32462,-6.185727,662.00
28.35626,-5.627785,664.00
28.38835,-5.160475,666.00
28.42253,-4.773582,668.00
28.45707,-4.453954,670.00
28.48961,-4.189970,672.00
28.52398,-3.973332,674.00
28.55639,-3.795171,676.00
28.58948,-3.649578,678.00
28.62323,-3.530309,680.00
28.65871,-3.431249,682.00
28.68951,-3.350949,684.00
28.72102,-3.284861,686.00
28.75636,-3.231094,688.00
28.79008,-3.187225,690.00
28.82268,-3.151422,692.00
28.85406,-3.122217,694.00
28.88799,-3.097546,696.00
28.92146,-3.077905,698.00
28.95456,-3.062226,700.00
28.98759,-3.049049,702.00
29.02125,-3.038249,704.00
29.05399,-3.029045,706.00
29.08870,-3.021955,708.00
29.11898,-3.016466,710.00
29.15243,-3.011971,712.00
29.18598,-3.008690,714.00
29.21903,-3.006851,716.00
29.25259,-3.006207,718.00
29.28448,-3.006600,720.00
29.31734,-3.006814,722.00
29.35021,-3.007213,724.00
29.38482,-3.007527,726.00
29.41891,-3.007274,728.00
29.44867,-3.005680,730.00
29.48223,-3.003174,732.00
29.51727,-3.000499,734.00
29.54798,-2.998645,736.00
29.58268,-2.996125,738.00
29.61644,-2.993704,740.00
29.65025,-2.992224,742.00
29.68267,-2.991016,744.00
29.71886,-2.990130,746.00
29.75160,-2.989572,748.00
29.78599,-2.988940,750.00
29.81903,-2.988565,752.00
29.85333,-2.988590,754.00
29.88540,-2.988338,756.00
29.91721,-2.988519,758.00
29.94945,-2.988307,760.00
29.97779,-2.988278,762.00
30.00982,-2.987839,764.00
30.04144,-2.987792,766.00
30.07777,-2.987842,768.00
30.11285,-2.987793,770.00
30.14452,-2.987812,772.00
30.17639,-2.987339,774.00
30.20767,-2.987088,776.00
30.24111,-2.986886,778.00
30.27587,-2.987040,780.00
30.30744,-2.986748,782.00
30.33850,-2.986203,784.00
30.37101,-2.985711,786.00
30.40545,-2.985088,788.00
30.44046,-2.984525,790.00
30.47365,-2.984122,792.00
30.50393,-2.984218,794.00
30.53824,-2.983799,796.00
30.57085,-2.983617,798.00
30.60425,-2.984080,800.00
30.63831,-2.983354,802.00
30.67160,-2.983077,804.00
30.70546,-2.983216,806.00
30.73686,-2.983341,808.00
30.77105,-2.982920,810.00
30.80427,-2.982778,812.00
30.83796,-2.983168,814.00
30.87145,-2.983748,816.00
30.90286,-2.983985,818.00
30.93688,-2.984109,820.00
30.97067,-2.983949,822.00
31.00113,-2.984066,824.00
31.03638,-2.984022,826.00
31.06797,-2.984852,828.00
31.10198,-2.985253,830.00
31.13628,-2.985355,832.00
31.16992,-2.985631,834.00
31.20028,-2.985735,836.00
31.23488,-2.985991,838.00
31.27164,-2.985583,840.00
31.30222,-2.985103,842.00
31.33586,-2.985216,844.00
31.36772,-2.984668,846.00
31.39916,-2.983854,848.00
31.43197,-2.983378,850.00
31.46713,-2.982854,852.00
31.50253,-2.982006,854.00
31.53316,-2.981541,856.00
31.56587,-2.981393,858.00
31.59940,-2.980940,860.00
31.63421,-2.980887,862.00
31.66707,-2.980645,864.00
31.70217,-2.980917,866.00
31.73406,-2.981262,868.00
31.76645,-2.981088,870.00
31.79854,-2.981614,872.00
31.82929,-2.981616,874.00
31.86136,-2.982416,876.00
31.89833,-2.982813,878.00
31.93313,-2.982063,880.00
31.96281,-2.981760,882.00
31.99682,-2.981901,884.00
32.03276,-2.982065,886.00
32.06599,-2.982286,888.00
32.09909,-2.982047,890.00
32.13264,-2.982017,892.00
32.16406,-2.981751,894.00
32.19493,-2.982004,896.00
32.22805,-2.982486,898.00
32.26534,-2.983007,900.00
32.29765,-2.982839,902.00
32.33310,-2.982501,904.00
32.36521,-2.981941,906.00
32.39880,-2.981777,908.00
32.42948,-2.981474,910.00
32.46545,-2.982043,912.00
32.49864,-2.981971,914.00
32.52832,-2.981591,916.00
32.56285,-2.981535,918.00
32.59688,-2.982202,920.00
32.62774,-2.982022,922.00
32.65976,-2.982212,924.00
32.69537,-2.982709,926.00
32.72658,-2.982557,928.00
32.75910,-2.982087,930.00
32.79115,-2.980889,932.00
32.82370,-2.980110,934.00
32.85837,-2.979994,936.00
32.89176,-2.980288,938.00
32.92496,-2.979313,940.00
32.95528,-2.979174,942.00
32.98815,-2.979239,944.00
33.02105,-2.979412,946.00
33.05408,-2.979521,948.00
33.08947,-2.979803,950.00
33.12222,-2.979698,952.00
33.15493,-2.979429,954.00
33.18738,-2.979934,956.00
33.22152,-2.980226,958.00
33.25531,-2.980296,960.00
33.28542,-2.980460,962.00
33.31955,-2.980517,964.00
33.35007,-2.980942,966.00
33.38158,-2.981057,968.00
33.41437,-2.981267,970.00
33.44771,-2.981397,972.00
33.48265,-2.982236,974.00
33.51725,-2.982690,976.00
33.55059,-2.982977,978.00
33.58455,-2.982656,980.00
33.61836,-2.982494,982.00
33.64854,-2.982111,984.00
33.68189,-2.982143,986.00
33.71340,-2.982459,988.00
33.74644,-2.982042,990.00
33.77920,-2.981592,992.00
33.81121,-2.981278,994.00
33.84601,-2.980869,996.00
33.87317,-2.980446,998.00
33.90847,-2.979671,1000.00
33.94310,-2.979920,1002.00
33.97376,-2.979859,1004.00
34.00753,-2.979596,1006.00
34.04045,-2.980239,1008.00
34.07468,-2.980238,1010.00
34.10704,-2.980267,1012.00
34.13968,-2.980408,1014.00
34.17370,-2.980167,1016.00
34.20599,-2.980410,1018.00
34.23788,-2.980711,1020.00
34.27338,-2.980645,1022.00
34.30631,-2.980877,1024.00
34.33821,-2.981248,1026.00
34.37095,-2.981123,1028.00
34.40312,-2.980894,1030.00
34.43596,-2.981057,1032.00
34.47146,-2.981115,1034.00
34.50373,-2.981216,1036.00
34.53590,-2.981197,1038.00
34.56911,-2.981630,1040.00
34.60170,-2.980926,1042.00
34.63437,-2.981121,1044.00
34.66719,-2.980757,1046.00
34.70123,-2.980393,1048.00
34.73385,-2.979786,1050.00
34.76838,-2.979464,1052.00
34.80171,-2.979476,1054.00
34.83224,-2.979077,1056.00
34.86379,-2.978329,1058.00
34.89715,-2.977510,1060.00
34.93027,-2.977866,1062.00
34.96406,-2.978037,1064.00
34.99705,-2.977933,1066.00
35.03013,-2.977875,1068.00
35.06085,-2.977626,1070.00
35.09446,-2.977279,1072.00
35.12596,-2.977098,1074.00
35.16038,-2.977212,1076.00
35.19496,-2.977558,1078.00
35.22955,-2.977382,1080.00
35.26301,-2.977905,1082.00
35.29440,-2.977670,1084.00
35.32827,-2.977850,1086.00
35.36090,-2.977636,1088.00
35.39477,-2.978674,1090.00
35.42708,-2.978371,1092.00
35.45980,-2.978082,1094.00
35.49463,-2.978018,1096.00
35.52706,-2.978110,1098.00
35.55807,-2.977539,1100.00
35.59203,-2.976977,1102.00
35.62675,-2.976990,1104.00
35.65881,-2.977070,1106.00
35.69300,-2.977363,1108.00
35.72933,-2.977408,1110.00
35.76298,-2.977831,1112.00
35.79608,-2.978218,1114.00
35.82811,-2.978666,1116.00
35.86178,-2.979137,1118.00
35.89535,-2.979415,1120.00
35.93315,-2.979327,1122.00
35.96442,-2.979959,1124.00
35.99650,-2.979605,1126.00
36.02933,-2.979110,1128.00
36.06438,-2.978920,1130.00
36.09750,-2.978973,1132.00
36.13239,-2.979157,1134.00
36.16471,-2.978663,1136.00
36.19735,-2.978527,1138.00
36.23033,-2.978028,1140.00
36.26194,-2.977964,1142.00
36.29451,-2.977822,1144.00
36.32630,-2.978038,1146.00
36.36010,-2.978193,1148.00
36.39096,-2.978150,1150.00
36.42328,-2.977607,1152.00
36.45458,-2.977856,1154.00
36.48944,-2.977796,1156.00
36.52300,-2.977521,1158.00
36.55930,-2.977221,1160.00
36.58804,-2.976797,1162.00
36.62330,-2.977023,1164.00
36.65564,-2.976806,1166.00
36.69154,-2.976886,1168.00
36.72364,-2.976560,1170.00
36.75708,-2.975912,1172.00
36.78823,-2.975905,1174.00
36.82232,-2.975605,1176.00
36.85566,-2.976000,1178.00
36.88983,-2.976148,1180.00
36.92389,-2.976589,1182.00
36.95479,-2.976859,1184.00
36.98695,-2.977383,1186.00
37.02338,-2.977830,1188.00
37.05401,-2.977819,1190.00
37.08809,-2.977842,1192.00
37.11840,-2.977880,1194.00
37.15381,-2.977981,1196.00
37.18762,-2.977487,1198.00
37.21962,-2.977055,1200.00
37.25201,-2.976636,1202.00
37.28794,-2.976457,1204.00
37.32070,-2.976750,1206.00
37.35367,-2.976776,1208.00
37.38760,-2.976176,1210.00
37.42025,-2.976207,1212.00
37.45210,-2.976373,1214.00
37.48582,-2.976647,1216.00
37.51777,-2.976529,1218.00
37.55202,-2.976425,1220.00
37.58529,-2.976528,1222.00
37.61852,-2.976858,1224.00
37.65222,-2.976957,1226.00
37.68425,-2.976880,1228.00
37.71726,-2.977176,1230.00
37.74719,-2.977576,1232.00
37.77677,-2.978127,1234.00
37.81058,-2.977398,1236.00
37.84457,-2.977718,1238.00
37.87626,-2.977908,1240.00
37.90807,-2.978041,1242.00
37.94011,-2.977905,1244.00
37.97390,-2.977989,1246.00
38.00602,-2.977998,1248.00
38.03869,-2.977931,1250.00
38.07195,-2.978195,1252.00
38.10749,-2.978187,1254.00
38.14014,-2.978270,1256.00
38.17143,-2.977759,1258.00
38.20765,-2.977499,1260.00
38.23922,-2.977432,1262.00
38.27256,-2.978149,1264.00
38.30622,-2.978279,1266.00
38.33955,-2.978753,1268.00
38.37437,-2.978404,1270.00
38.40801,-2.977958,1272.00
38.43981,-2.977516,1274.00
38.47343,-2.977445,1276.00
38.50610,-2.976837,1278.00
38.54024,-2.976849,1280.00
38.57194,-2.976946,1282.00
38.60522,-2.977627,1284.00
38.64094,-2.977659,1286.00
38.67410,-2.977892,1288.00
38.70806,-2.977679,1290.00
38.74125,-2.977874,1292.00
38.77432,-2.978129,1294.00
38.80590,-2.978713,1296.00
38.84054,-2.978917,1298.00
38.87469,-2.978750,1300.00
38.90659,-2.978196,1302.00
38.93811,-2.977591,1304.00
38.97237,-2.977195,1306.00
39.00487,-2.976604,1308.00
39.03795,-2.976391,1310.00
39.07160,-2.976638,1312.00
39.10380,-2.976791,1314.00
39.13895,-2.977002,1316.00
39.17180,-2.977344,1318.00
39.20599,-2.977492,1320.00
39.23801,-2.977836,1322.00
39.27193,-2.978010,1324.00
39.30745,-2.978093,1326.00
39.34062,-2.978423,1328.00
39.37408,-2.978374,1330.00
39.40740,-2.978650,1332.00
39.43911,-2.978800,1334.00
39.47365,-2.979016,1336.00
39.50885,-2.979503,1338.00
39.54029,-2.979809,1340.00
39.57288,-2.980008,1342.00
39.60251,-2.979860,1344.00
39.63836,-2.980246,1346.00
39.67271,-2.980397,1348.00
39.70418,-2.980768,1350.00
39.73882,-2.981383,1352.00
39.77109,-2.981364,1354.00
39.80771,-2.980847,1356.00
39.84118,-2.980220,1358.00
39.87496,-2.979663,1360.00
39.90755,-2.979413,1362.00
39.93926,-2.979383,1364.00
39.97271,-2.979527,1366.00
40.00458,-2.979617,1368.00
40.03927,-2.980547,1370.00
40.07281,-2.980541,1372.00
40.10521,-2.980616,1374.00
40.13848,-2.980609,1376.00
40.17018,-2.980813,1378.00
40.20382,-2.981300,1380.00
40.23583,-2.981637,1382.00
40.27010,-2.981432,1384.00
40.30560,-2.981562,1386.00
40.33824,-2.981336,1388.00
40.37104,-2.980820,1390.00
40.40464,-2.980450,1392.00
40.43808,-2.980357,1394.00
40.47373,-2.980623,1396.00
40.50454,-2.980200,1398.00
40.53756,-2.980148,1400.00
40.57011,-2.980167,1402.00
40.60317,-2.980261,1404.00
40.63675,-2.979826,1406.00
40.67078,-2.979613,1408.00
40.70357,-2.979249,1410.00
40.73665,-2.979893,1412.00
40.77042,-2.980021,1414.00
40.80408,-2.979875,1416.00
40.83705,-2.979253,1418.00
40.87009,-2.979170,1420.00
40.90359,-2.979122,1422.00
40.93806,-2.978847,1424.00
40.97123,-2.978582,1426.00
41.00546,-2.978908,1428.00
41.03700,-2.979047,1430.00
41.07049,-2.979062,1432.00
41.10341,-2.979487,1434.00
41.13720,-2.979862,1436.00
41.16892,-2.980372,1438.00
41.20444,-2.980525,1440.00
41.23778,-2.981040,1442.00
41.26720,-2.981559,1444.00
41.30432,-2.982060,1446.00
41.33902,-2.982410,1448.00
41.36961,-2.982144,1450.00
41.40326,-2.982083,1452.00
41.43498,-2.981686,1454.00
41.46871,-2.982385,1456.00
41.50196,-2.983047,1458.00
41.53502,-2.983490,1460.00
41.56951,-2.983290,1462.00
41.60172,-2.983511,1464.00
41.63334,-2.983312,1466.00
41.66390,-2.982729,1468.00
41.69587,-2.982729,1470.00
41.72854,-2.982949,1472.00
41.76298,-2.983233,1474.00
41.79307,-2.982375,1476.00
41.82580,-2.982329,1478.00
41.86249,-2.982021,1480.00
41.89574,-2.981642,1482.00
41.92913,-2.981462,1484.00
41.96017,-2.981760,1486.00
41.99280,-2.982354,1488.00
42.02526,-2.982451,1490.00
42.06047,-2.982537,1492.00
42.09449,-2.982890,1494.00
42.12905,-2.982991,1496.00
42.16035,-2.982913,1498.00
42.19305,-2.982895,1500.00
42.22885,-2.983057,1502.00
42.26311,-2.983597,1504.00
42.29456,-2.983628,1506.00
42.32499,-2.983575,1508.00
42.36091,-2.983415,1510.00
42.39458,-2.983536,1512.00
42.42708,-2.983857,1514.00
42.46182,-2.984345,1516.00
42.49383,-2.984373,1518.00
42.52478,-2.985292,1520.00
42.56019,-2.985903,1522.00
42.59171,-2.985687,1524.00
42.62671,-2.985661,1526.00
42.65819,-2.985192,1528.00
42.69087,-2.985041,1530.00
42.72322,-2.985211,1532.00
42.75624,-2.985409,1534.00
42.79118,-2.985239,1536.00
42.82224,-2.985180,1538.00
42.85644,-2.984465,1540.00
42.89054,-2.983734,1542.00
42.92463,-2.983466,1544.00
42.95849,-2.982972,1546.00
42.98957,-2.982792,1548.00
43.02331,-2.983224,1550.00
43.05796,-2.983004,1552.00
43.08957,-2.982677,1554.00
43.12209,-2.982579,1556.00
43.15700,-2.982933,1558.00
43.19165,-2.983290,1560.00
43.22371,-2.983359,1562.00
43.25586,-2.984282,1564.00
43.28889,-2.985436,1566.00
43.32181,-2.986434,1568.00
43.35409,-2.986363,1570.00
43.38841,-2.986267,1572.00
43.42138,-2.986351,1574.00
43.45471,-2.986984,1576.00
43.48748,-2.986913,1578.00
43.52009,-2.986789,1580.00
43.55186,-2.986807,1582.00
43.58559,-2.986239,1584.00
43.61924,-2.986265,1586.00
43.65192,-2.986416,1588.00
43.68606,-2.985915,1590.00
43.71952,-2.986100,1592.00
43.75220,-2.986161,1594.00
43.78461,-2.986334,1596.00
43.81826,-2.986491,1598.00
43.84873,-2.986764,1600.00
43.88381,-2.986649,1602.00
43.91656,-2.986485,1604.00
43.95152,-2.985949,1606.00
43.98568,-2.985445,1608.00
44.01883,-2.985518,1610.00
44.05239,-2.985530,1612.00
44.08413,-2.985441,1614.00
44.11721,-2.985555,1616.00
44.15174,-2.985967,1618.00
44.18567,-2.986369,1620.00
44.21928,-2.986307,1622.00
44.25021,-2.986889,1624.00
44.28362,-2.987753,1626.00
44.31922,-2.987805,1628.00
44.35224,-2.988594,1630.00
44.38282,-2.988785,1632.00
44.41643,-2.988868,1634.00
44.44981,-2.989600,1636.00
44.48179,-2.989811,1638.00
44.51574,-2.989615,1640.00
44.54831,-2.990226,1642.00
44.57983,-2.990726,1644.00
44.61463,-2.990344,1646.00
44.64791,-2.989900,1648.00
44.68190,-2.989344,1650.00
44.71489,-2.988525,1652.00
44.74756,-2.987794,1654.00
44.78158,-2.988319,1656.00
44.81529,-2.988722,1658.00
44.84962,-2.989082,1660.00
44.88246,-2.989598,1662.00
44.91329,-2.990573,1664.00
44.94793,-2.990768,1666.00
44.98125,-2.990449,1668.00
45.01313,-2.989906,1670.00
45.04832,-2.989731,1672.00
45.08101,-2.989658,1674.00
45.11407,-2.989713,1676.00
45.14650,-2.989658,1678.00
45.17957,-2.989393,1680.00
45.21293,-2.989411,1682.00
45.24727,-2.989197,1684.00
45.27901,-2.989588,1686.00
45.31166,-2.989557,1688.00
45.34315,-2.989356,1690.00
45.37512,-2.989053,1692.00
45.40957,-2.988711,1694.00
45.44271,-2.988487,1696.00
45.47309,-2.988403,1698.00
45.50731,-2.988417,1700.00
45.54095,-2.988978,1702.00
45.57517,-2.989219,1704.00
45.60751,-2.989608,1706.00
45.64132,-2.990071,1708.00
45.67253,-2.990569,1710.00
45.70919,-2.991261,1712.00
45.74336,-2.991392,1714.00
45.77274,-2.991658,1716.00
45.80578,-2.991260,1718.00
45.83944,-2.990882,1720.00
45.86997,-2.990022,1722.00
45.90387,-2.989992,1724.00
45.93793,-2.990539,1726.00
45.97202,-2.990952,1728.00
46.00536,-2.992173,1730.00
46.03800,-2.992345,1732.00
46.06974,-2.992390,1734.00
46.10436,-2.993145,1736.00
46.13807,-2.993821,1738.00
46.16912,-2.994045,1740.00
46.20283,-2.994542,1742.00
46.23597,-2.994281,1744.00
46.26854,-2.994344,1746.00
46.30203,-2.994346,1748.00
46.33519,-2.994869,1750.00
46.36812,-2.994467,1752.00
46.40439,-2.994656,1754.00
46.43600,-2.994066,1756.00
46.47032,-2.994224,1758.00
46.50645,-2.993736,1760.00
46.53701,-2.993635,1762.00
46.57203,-2.993954,1764.00
46.60292,-2.994202,1766.00
46.63790,-2.994205,1768.00
46.67387,-2.994348,1770.00
46.70556,-2.994797,1772.00
46.73979,-2.994535,1774.00
46.77286,-2.994071,1776.00
46.80653,-2.994786,1778.00
46.84052,-2.995114,1780.00
46.87203,-2.995077,1782.00
46.90473,-2.995623,1784.00
46.93779,-2.996481,1786.00
46.97147,-2.996771,1788.00
47.00394,-2.996635,1790.00
47.03739,-2.996993,1792.00
47.07141,-2.996967,1794.00
47.10698,-2.996610,1796.00
47.13912,-2.996660,1798.00
47.17097,-2.996739,1800.00
47.20138,-2.996760,1802.00
47.23540,-2.996333,1804.00
47.26935,-2.995785,1806.00
47.30344,-2.995547,1808.00
47.33419,-2.995611,1810.00
47.37042,-2.995391,1812.00
47.40328,-2.996082,1814.00
47.43944,-2.996189,1816.00
47.47198,-2.995879,1818.00
47.50620,-2.995436,1820.00
47.53831,-2.995425,1822.00
47.57086,-2.995520,1824.00
47.60531,-2.995647,1826.00
47.63780,-2.996451,1828.00
47.67149,-2.996862,1830.00
47.70287,-2.997781,1832.00
47.73533,-2.998314,1834.00
47.77017,-2.999414,1836.00
47.80134,-2.999312,1838.00
47.83785,-2.999850,1840.00
47.87060,-3.000785,1842.00
47.90262,-3.000803,1844.00
47.93667,-3.000635,1846.00
47.96882,-3.000209,1848.00
48.00243,-2.999285,1850.00
48.03565,-2.998329,1852.00
48.06887,-2.998324,1854.00
48.10402,-2.998593,1856.00
48.13921,-2.998460,1858.00
48.16962,-2.998561,1860.00
48.20458,-2.998783,1862.00
48.23367,-2.998655,1864.00
48.26635,-2.998685,1866.00
48.29997,-2.998886,1868.00
48.33307,-2.999573,1870.00
48.36546,-2.999988,1872.00
48.40229,-2.999999,1874.00
48.43411,-2.999975,1876.00
48.46782,-3.000251,1878.00
48.50026,-3.001228,1880.00
48.53392,-3.001723,1882.00
48.56641,-3.002400,1884.00
48.60031,-3.002975,1886.00
48.63378,-3.002815,1888.00
48.66482,-3.002928,1890.00
48.69934,-3.003562,1892.00
48.73247,-3.003154,1894.00
48.76277,-3.003070,1896.00
48.79801,-3.003195,1898.00
48.83083,-3.003366,1900.00
48.86435,-3.003695,1902.00
48.89731,-3.003790,1904.00
48.93127,-3.004116,1906.00
48.96215,-3.004352,1908.00
48.99547,-3.003941,1910.00
49.03044,-3.002889,1912.00
49.06180,-3.002387,1914.00
49.09223,-3.001997,1916.00
49.12604,-3.002820,1918.00
49.16187,-3.003621,1920.00
49.19404,-3.004274,1922.00
49.22668,-3.004493,1924.00
49.26009,-3.004878,1926.00
49.29592,-3.004713,1928.00
49.32844,-3.004844,1930.00
49.35876,-3.005076,1932.00
49.39505,-3.005400,1934.00
49.43025,-3.006151,1936.00
49.46020,-3.006485,1938.00
49.49044,-3.007204,1940.00
49.52354,-3.007421,1942.00
49.55639,-3.007639,1944.00
49.59027,-3.007477,1946.00
49.62537,-3.006853,1948.00
49.65619,-3.006088,1950.00
49.68986,-3.005931,1952.00
49.72207,-3.005402,1954.00
49.75581,-3.005440,1956.00
49.78919,-3.006312,1958.00
49.81976,-3.007203,1960.00
49.85354,-3.007331,1962.00
49.88598,-3.007989,1964.00
49.92091,-3.008468,1966.00
49.95491,-3.008696,1968.00
49.98876,-3.008598,1970.00
50.02135,-3.008693,1972.00
50.05420,-3.008403,1974.00
50.08590,-3.008263,1976.00
50.11880,-3.008247,1978.00
50.15096,-3.007422,1980.00
50.18563,-3.007236,1982.00
50.21717,-3.007039,1984.00
50.24995,-3.006717,1986.00
50.28516,-3.006664,1988.00
50.31768,-3.006922,1990.00
50.35105,-3.007059,1992.00
50.38418,-3.008127,1994.00
50.41762,-3.008871,1996.00
50.45252,-3.009795,1998.00
50.48481,-3.009911,2000.00
50.51922,-3.010856,2002.00
50.55177,-3.010982,2004.00
50.58469,-3.011376,2006.00
50.61562,-3.011648,2008.00
50.65198,-3.011527,2010.00
50.68412,-3.011452,2012.00
50.71569,-3.011825,2014.00
50.75201,-3.012501,2016.00
50.78645,-3.012052,2018.00
50.81845,-3.011942,2020.00
50.85213,-3.011929,2022.00
50.88533,-3.012394,2024.00
50.91828,-3.012743,2026.00
50.95154,-3.013142,2028.00
50.98556,-3.012911,2030.00
51.01804,-3.012720,2032.00
51.05092,-3.013077,2034.00
51.08491,-3.013344,2036.00
51.11475,-3.012816,2038.00
51.15102,-3.012863,2040.00
51.18302,-3.013474,2042.00
51.21555,-3.013767,2044.00
51.24740,-3.014167,2046.00
51.27778,-3.013960,2048.00
51.31026,-3.014075,2050.00
51.34163,-3.015142,2052.00
51.37484,-3.016183,2054.00
51.40810,-3.016070,2056.00
51.44112,-3.015867,2058.00
51.47425,-3.016632,2060.00
51.50681,-3.017176,2062.00
51.54213,-3.017146,2064.00
51.57506,-3.017205,2066.00
51.60709,-3.017128,2068.00
51.64008,-3.017082,2070.00
51.67430,-3.016785,2072.00
51.70509,-3.016297,2074.00
51.73798,-3.016040,2076.00
51.77009,-3.016215,2078.00
51.80208,-3.016585,2080.00
51.83580,-3.017128,2082.00
51.86674,-3.017973,2084.00
51.89992,-3.018632,2086.00
51.93536,-3.018824,2088.00
51.96578,-3.018572,2090.00
51.99846,-3.018814,2092.00
52.03175,-3.018440,2094.00
52.06435,-3.018158,2096.00
52.09715,-3.017692,2098.00
52.13020,-3.017703,2100.00
52.16145,-3.018002,2102.00
52.19771,-3.018157,2104.00
52.22954,-3.018697,2106.00
52.26239,-3.019207,2108.00
52.29557,-3.019791,2110.00
52.33072,-3.019950,2112.00
52.36290,-3.020240,2114.00
52.39570,-3.020773,2116.00
52.42967,-3.020873,2118.00
52.46315,-3.021030,2120.00
52.49787,-3.021914,2122.00
52.53166,-3.022867,2124.00
52.56491,-3.023455,2126.00
52.59911,-3.023908,2128.00
52.63128,-3.023963,2130.00
52.66429,-3.023963,2132.00
52.69711,-3.024043,2134.00
52.73173,-3.023614,2136.00
52.76344,-3.023231,2138.00
52.79800,-3.023677,2140.00
52.82797,-3.023618,2142.00
52.86213,-3.024082,2144.00
52.89624,-3.024811,2146.00
52.92835,-3.024765,2148.00
52.96178,-3.025145,2150.00
52.99256,-3.025561,2152.00
53.02502,-3.025452,2154.00
53.05803,-3.025577,2156.00
53.09225,-3.025682,2158.00
53.12625,-3.025959,2160.00
53.15820,-3.026079,2162.00
53.19226,-3.025438,2164.00
53.22477,-3.024956,2166.00
53.25988,-3.024966,2168.00
53.29148,-3.025340,2170.00
53.32558,-3.025812,2172.00
53.35955,-3.025967,2174.00
53.39151,-3.026001,2176.00
53.42108,-3.025803,2178.00
53.45248,-3.025763,2180.00
53.48879,-3.026094,2182.00
53.52054,-3.026971,2184.00
53.55456,-3.027196,2186.00
53.58721,-3.028003,2188.00
53.62086,-3.028181,2190.00
53.65531,-3.029035,2192.00
53.68720,-3.029858,2194.00
53.72080,-3.030358,2196.00
53.75439,-3.030549,2198.00
53.78869,-3.030748,2200.00
53.81992,-3.030758,2202.00
53.84856,-3.030301,2204.00
53.88632,-3.030218,2206.00
53.92046,-3.030017,2208.00
53.95342,-3.030398,2210.00
53.98626,-3.031092,2212.00
54.01789,-3.031434,2214.00
54.05048,-3.031769,2216.00
54.08614,-3.031678,2218.00
54.11812,-3.032063,2220.00
54.15259,-3.031659,2222.00
54.18459,-3.031446,2224.00
54.21740,-3.031854,2226.00
54.25041,-3.031827,2228.00
54.28388,-3.032115,2230.00
54.31439,-3.032670,2232.00
54.35246,-3.033138,2234.00
54.38449,-3.033373,2236.00
54.41690,-3.033659,2238.00
54.45238,-3.033926,2240.00
54.48570,-3.034756,2242.00
54.51767,-3.034924,2244.00
54.54922,-3.035395,2246.00
54.58133,-3.035405,2248.00
54.61591,-3.035402,2250.00
54.64820,-3.035274,2252.00
54.68064,-3.034961,2254.00
54.71142,-3.035251,2256.00
54.74773,-3.035147,2258.00
54.78104,-3.035228,2260.00
54.81394,-3.035375,2262.00
54.84634,-3.035993,2264.00
54.88018,-3.036877,2266.00
54.91425,-3.037312,2268.00
54.94774,-3.037358,2270.00
54.97917,-3.037005,2272.00
55.01285,-3.036414,2274.00
55.04420,-3.036160,2276.00
55.08084,-3.036603,2278.00
55.11417,-3.037005,2280.00
55.14576,-3.036803,2282.00
55.17943,-3.036794,2284.00
55.21372,-3.036625,2286.00
55.24875,-3.036946,2288.00
55.28156,-3.037033,2290.00
55.31339,-3.037807,2292.00
55.34593,-3.039007,2294.00
55.37977,-3.040279,2296.00
55.41534,-3.040209,2298.00
55.44835,-3.040312,2300.00
55.48178,-3.041330,2302.00
55.51581,-3.042238,2304.00
55.55002,-3.041799,2306.00
55.58157,-3.041483,2308.00
55.61416,-3.041751,2310.00
55.64787,-3.041566,2312.00
55.68587,-3.041290,2314.00
55.71577,-3.041102,2316.00
55.74675,-3.041592,2318.00
55.78050,-3.042136,2320.00
55.81522,-3.042553,2322.00
55.84934,-3.042287,2324.00
55.88063,-3.042243,2326.00
55.91524,-3.042362,2328.00
55.94889,-3.042818,2330.00
55.98101,-3.043531,2332.00
56.01526,-3.044128,2334.00
56.04773,-3.044244,2336.00
56.08146,-3.044967,2338.00
56.11520,-3.045344,2340.00
56.14692,-3.045780,2342.00
56.18355,-3.046704,2344.00
56.21467,-3.047421,2346.00
56.24772,-3.048280,2348.00
56.27960,-3.047898,2350.00
56.31211,-3.047817,2352.00
56.34643,-3.047767,2354.00
56.37934,-3.047849,2356.00
56.41224,-3.048361,2358.00
56.44603,-3.048922,2360.00
56.47838,-3.048831,2362.00
56.50986,-3.049234,2364.00
56.54277,-3.050290,2366.00
56.57693,-3.051382,2368.00
56.61028,-3.051954,2370.00
56.64179,-3.051336,2372.00
56.67642,-3.051001,2374.00
56.71342,-3.050870,2376.00
56.74468,-3.050870,2378.00
56.77844,-3.050927,2380.00
56.81252,-3.051084,2382.00
56.84568,-3.050852,2384.00
56.87798,-3.051618,2386.00
56.91044,-3.052626,2388.00
56.94309,-3.053762,2390.00
56.97750,-3.054019,2392.00
57.01129,-3.054242,2394.00
57.04535,-3.054362,2396.00
57.07940,-3.054420,2398.00
57.11336,-3.054378,2400.00
57.14589,-3.054141,2402.00
57.17979,-3.054292,2404.00
57.21387,-3.054230,2406.00
57.24630,-3.054372,2408.00
57.28053,-3.055034,2410.00
57.31160,-3.055834,2412.00
57.34171,-3.056755,2414.00
57.37454,-3.057623,2416.00
57.40843,-3.057714,2418.00
57.44087,-3.057927,2420.00
57.47482,-3.057912,2422.00
57.50463,-3.058117,2424.00
57.53881,-3.058354,2426.00
57.57331,-3.058446,2428.00
57.60707,-3.058583,2430.00
57.63834,-3.059245,2432.00
57.67056,-3.059799,2434.00
57.70533,-3.060951,2436.00
57.73812,-3.061773,2438.00
57.77519,-3.062523,2440.00
57.80705,-3.062917,2442.00
57.84038,-3.062648,2444.00
57.87393,-3.062671,2446.00
57.90478,-3.062890,2448.00
57.93764,-3.062847,2450.00
57.97167,-3.063421,2452.00
58.00407,-3.063894,2454.00
58.03832,-3.064228,2456.00
58.07382,-3.065244,2458.00
58.10440,-3.066047,2460.00
58.13811,-3.067307,2462.00
58.17199,-3.067932,2464.00
58.20420,-3.068054,2466.00
58.23928,-3.069205,2468.00
58.27163,-3.069768,2470.00
58.30484,-3.069781,2472.00
58.33682,-3.069407,2474.00
58.36969,-3.070113,2476.00
58.40331,-3.070311,2478.00
58.43574,-3.070653,2480.00
58.46852,-3.070971,2482.00
58.50235,-3.072024,2484.00
58.53403,-3.072546,2486.00
58.56476,-3.072659,2488.00
58.60232,-3.072749,2490.00
58.63772,-3.072986,2492.00
58.66793,-3.073033,2494.00
58.70123,-3.073412,2496.00
58.73534,-3.073706,2498.00
58.76899,-3.073850,2500.00
58.80131,-3.074368,2502.00
58.83403,-3.074451,2504.00
58.86646,-3.075327,2506.00
58.89917,-3.076415,2508.00
58.93210,-3.076454,2510.00
58.96624,-3.076310,2512.00
59.00067,-3.076654,2514.00
59.03198,-3.077318,2516.00
59.06345,-3.077137,2518.00
59.09896,-3.076648,2520.00
59.13254,-3.076724,2522.00
59.16513,-3.076983,2524.00
59.19738,-3.077609,2526.00
59.23020,-3.078651,2528.00
59.26296,-3.079706,2530.00
59.29840,-3.080570,2532.00
59.33280,-3.080872,2534.00
59.36556,-3.080837,2536.00
59.40021,-3.081033,2538.00
59.43339,-3.081327,2540.00
59.46704,-3.081089,2542.00
59.50010,-3.081203,2544.00
59.53171,-3.081472,2546.00
59.56634,-3.081547,2548.00
59.59912,-3.081479,2550.00
59.63038,-3.081592,2552.00
59.66430,-3.081293,2554.00
59.69784,-3.081218,2556.00
59.73142,-3.081878,2558.00
59.76511,-3.082646,2560.00
59.79697,-3.082726,2562.00
59.83186,-3.083797,2564.00
59.86612,-3.084026,2566.00
59.89890,-3.084083,2568.00
59.93049,-3.084661,2570.00
59.96484,-3.084827,2572.00
59.99654,-3.084637,2574.00
60.02835,-3.084735,2576.00
60.06543,-3.084923,2578.00
60.10200,-3.085443,2580.00
60.13075,-3.086090,2582.00
60.16343,-3.086006,2584.00
60.19820,-3.086436,2586.00
60.23010,-3.086811,2588.00
60.26577,-3.087523,2590.00
60.29699,-3.088845,2592.00
60.33205,-3.088979,2594.00
60.36535,-3.089028,2596.00
60.39853,-3.089751,2598.00
60.43124,-3.090139,2600.00
60.46470,-3.091255,2602.00
60.49626,-3.092023,2604.00
60.52922,-3.092549,2606.00
60.56416,-3.092199,2608.00
60.59504,-3.092227,2610.00
60.62738,-3.092372,2612.00
60.66298,-3.092352,2614.00
60.69406,-3.092687,2616.00
60.72797,-3.093061,2618.00
60.76041,-3.093466,2620.00
60.79207,-3.092959,2622.00
60.82686,-3.093975,2624.00
60.86071,-3.094573,2626.00
60.89390,-3.095080,2628.00
60.92668,-3.095280,2630.00
60.96058,-3.095551,2632.00
60.99187,-3.096139,2634.00
61.02509,-3.096795,2636.00
61.05953,-3.097525,2638.00
61.09140,-3.096932,2640.00
61.12298,-3.097638,2642.00
61.15826,-3.097950,2644.00
61.19041,-3.098919,2646.00
61.22380,-3.099409,2648.00
61.25479,-3.099361,2650.00
61.28410,-3.099228,2652.00
61.31856,-3.100363,2654.00
61.35154,-3.100784,2656.00
61.38498,-3.101676,2658.00
61.41772,-3.102026,2660.00
61.45080,-3.102799,2662.00
61.48362,-3.103056,2664.00
61.51665,-3.103306,2666.00
61.55187,-3.103583,2668.00
61.58390,-3.104122,2670.00
61.61709,-3.105046,2672.00
61.64874,-3.106121,2674.00
61.68533,-3.107442,2676.00
61.71943,-3.108718,2678.00
61.74972,-3.109424,2680.00
61.78429,-3.109749,2682.00
61.81648,-3.110520,2684.00
61.84730,-3.111205,2686.00
61.88067,-3.112073,2688.00
61.91608,-3.112861,2690.00
61.94885,-3.113615,2692.00
61.98092,-3.114189,2694.00
62.01522,-3.114799,2696.00
62.04925,-3.114284,2698.00
62.08276,-3.114021,2700.00
62.11378,-3.114979,2702.00
62.14919,-3.116298,2704.00
62.18207,-3.117654,2706.00
62.21867,-3.118198,2708.00
62.25081,-3.119198,2710.00
62.28257,-3.119941,2712.00
62.31629,-3.120134,2714.00
62.34962,-3.121271,2716.00
62.38427,-3.121732,2718.00
62.41752,-3.121861,2720.00
62.45008,-3.122280,2722.00
62.48358,-3.121995,2724.00
62.51687,-3.122515,2726.00
62.55037,-3.124000,2728.00
62.58237,-3.125104,2730.00
62.61718,-3.126248,2732.00
62.64822,-3.126274,2734.00
62.68186,-3.126398,2736.00
62.71408,-3.126942,2738.00
62.74704,-3.127269,2740.00
62.78025,-3.127850,2742.00
62.81586,-3.128279,2744.00
62.84997,-3.128919,2746.00
62.88267,-3.130188,2748.00
62.91394,-3.131095,2750.00
62.94701,-3.131928,2752.00
62.98196,-3.133041,2754.00
63.01530,-3.133579,2756.00
63.04872,-3.134037,2758.00
63.08240,-3.134451,2760.00
63.11480,-3.134802,2762.00
63.14770,-3.134741,2764.00
63.17997,-3.135127,2766.00
63.21557,-3.135092,2768.00
63.24756,-3.135432,2770.00
63.27982,-3.135334,2772.00
63.31475,-3.135656,2774.00
63.34729,-3.136554,2776.00
63.37962,-3.137472,2778.00
63.41252,-3.138478,2780.00
63.44590,-3.138449,2782.00
63.47951,-3.138688,2784.00
63.51598,-3.139662,2786.00
63.54762,-3.140678,2788.00
63.57985,-3.142091,2790.00
63.61193,-3.143287,2792.00
63.64516,-3.144539,2794.00
63.67941,-3.145364,2796.00
63.71200,-3.145472,2798.00
63.74492,-3.145765,2800.00
63.77891,-3.146552,2802.00
63.81279,-3.147161,2804.00
63.84394,-3.147246,2806.00
63.88117,-3.147928,2808.00
63.91275,-3.148585,2810.00
63.94626,-3.148935,2812.00
63.98002,-3.150793,2814.00
64.01502,-3.152382,2816.00
64.04514,-3.152848,2818.00
64.07945,-3.153074,2820.00
64.11263,-3.153330,2822.00
64.14527,-3.154056,2824.00
64.17998,-3.154135,2826.00
64.21354,-3.154334,2828.00
64.24457,-3.154842,2830.00
64.27609,-3.155366,2832.00
64.31154,-3.155692,2834.00
64.34466,-3.155690,2836.00
64.37713,-3.155907,2838.00
64.40988,-3.156915,2840.00
64.44408,-3.158103,2842.00
64.47595,-3.158596,2844.00
64.50830,-3.159244,2846.00
64.54316,-3.159892,2848.00
64.57728,-3.160921,2850.00
64.61167,-3.162234,2852.00
64.64503,-3.162913,2854.00
64.67701,-3.163579,2856.00
64.71078,-3.164482,2858.00
64.74329,-3.165217,2860.00
64.77540,-3.165869,2862.00
64.80916,-3.166580,2864.00
64.84316,-3.167665,2866.00
64.87773,-3.168871,2868.00
64.90856,-3.169051,2870.00
64.94423,-3.169523,2872.00
64.97711,-3.170804,2874.00
65.00983,-3.172101,2876.00
65.04400,-3.172576,2878.00
65.07669,-3.173581,2880.00
65.11080,-3.174514,2882.00
65.14248,-3.174948,2884.00
65.17409,-3.175451,2886.00
65.20333,-3.175504,2888.00
65.23931,-3.175480,2890.00
65.27304,-3.176361,2892.00
65.30557,-3.177273,2894.00
65.33903,-3.177875,2896.00
65.37402,-3.177933,2898.00
65.40632,-3.178368,2900.00
65.44099,-3.179381,2902.00
65.47263,-3.179835,2904.00
65.50551,-3.180223,2906.00
65.54007,-3.181630,2908.00
65.57462,-3.182642,2910.00
65.60531,-3.183329,2912.00
65.63886,-3.183998,2914.00
65.67166,-3.185091,2916.00
65.70538,-3.186695,2918.00
65.73862,-3.187660,2920.00
65.76963,-3.188417,2922.00
65.80321,-3.189114,2924.00
65.83892,-3.190515,2926.00
65.87059,-3.191106,2928.00
65.90180,-3.191579,2930.00
65.93672,-3.192503,2932.00
65.96910,-3.193300,2934.00
66.00321,-3.194417,2936.00
66.03680,-3.195505,2938.00
66.06853,-3.196363,2940.00
66.09961,-3.197448,2942.00
66.13333,-3.198073,2944.00
66.16705,-3.197903,2946.00
66.19887,-3.198847,2948.00
66.23355,-3.200454,2950.00
66.26584,-3.201708,2952.00
66.29858,-3.202574,2954.00
66.33250,-3.203452,2956.00
66.36569,-3.204125,2958.00
66.39994,-3.204596,2960.00
66.43164,-3.204553,2962.00
66.46462,-3.204527,2964.00
66.49918,-3.205275,2966.00
66.53284,-3.206022,2968.00
66.56731,-3.206879,2970.00
66.59704,-3.207158,2972.00
66.62878,-3.207850,2974.00
66.66286,-3.208838,2976.00
66.69637,-3.209836,2978.00
66.72980,-3.210252,2980.00
66.76349,-3.211003,2982.00
66.79493,-3.212235,2984.00
66.83014,-3.213226,2986.00
66.86244,-3.214499,2988.00
66.89680,-3.215256,2990.00
66.93162,-3.216690,2992.00
66.96230,-3.217314,2994.00
66.99617,-3.218009,2996.00
67.02875,-3.219113,2998.00
67.06208,-3.220123,3000.00
67.09669,-3.221019,3002.00
67.13091,-3.221207,3004.00
67.16368,-3.221871,3006.00
67.19671,-3.222689,3008.00
67.23183,-3.223070,3010.00
67.26608,-3.223555,3012.00
67.29811,-3.224152,3014.00
67.33265,-3.224510,3016.00
67.36774,-3.224871,3018.00
67.39937,-3.225304,3020.00
67.43358,-3.226638,3022.00
67.46753,-3.227749,3024.00
67.49863,-3.229355,3026.00
67.53114,-3.230469,3028.00
67.56518,-3.231604,3030.00
67.60005,-3.232467,3032.00
67.63239,-3.232645,3034.00
67.66474,-3.233153,3036.00
67.69667,-3.234346,3038.00
67.72939,-3.234881,3040.00
67.76285,-3.235881,3042.00
67.79565,-3.236268,3044.00
67.82789,-3.237190,3046.00
67.86214,-3.238217,3048.00
67.89693,-3.239206,3050.00
67.93025,-3.239492,3052.00
67.96173,-3.240159,3054.00
67.99605,-3.240546,3056.00
68.03010,-3.241510,3058.00
68.06393,-3.242273,3060.00
68.09661,-3.243366,3062.00
68.12953,-3.244290,3064.00
68.16105,-3.245456,3066.00
68.19389,-3.246133,3068.00
68.22879,-3.246682,3070.00
68.26083,-3.247883,3072.00
68.29483,-3.248557,3074.00
68.32955,-3.249569,3076.00
68.36182,-3.250839,3078.00
68.39533,-3.251868,3080.00
68.42985,-3.253129,3082.00
68.46206,-3.254400,3084.00
68.49634,-3.255248,3086.00
68.52997,-3.255401,3088.00
68.56327,-3.256174,3090.00
68.59648,-3.257048,3092.00
68.62885,-3.256952,3094.00
68.66094,-3.257228,3096.00
68.69567,-3.258014,3098.00
68.72718,-3.258654,3100.00
68.76240,-3.260010,3102.00
68.79370,-3.260014,3104.00
68.82690,-3.260036,3106.00
68.86069,-3.260730,3108.00
68.89584,-3.262208,3110.00
68.92885,-3.264095,3112.00
68.96129,-3.265377,3114.00
68.99411,-3.265961,3116.00
69.02770,-3.266190,3118.00
69.05944,-3.266662,3120.00
69.09252,-3.267264,3122.00
69.12137,-3.267735,3124.00
69.15272,-3.268307,3126.00
69.18671,-3.269378,3128.00
69.22146,-3.270900,3130.00
69.25673,-3.272479,3132.00
69.28871,-3.273057,3134.00
69.31972,-3.274235,3136.00
69.35209,-3.275339,3138.00
69.38649,-3.276326,3140.00
69.42153,-3.277591,3142.00
69.45483,-3.278042,3144.00
69.48394,-3.278920,3146.00
69.51824,-3.279947,3148.00
69.55203,-3.281503,3150.00
69.58565,-3.283035,3152.00
69.61748,-3.283539,3154.00
69.65066,-3.284576,3156.00
69.68482,-3.284934,3158.00
69.71931,-3.285550,3160.00
69.75043,-3.285980,3162.00
69.78085,-3.286544,3164.00
69.81642,-3.286579,3166.00
69.85038,-3.287078,3168.00
69.88484,-3.288047,3170.00
69.91635,-3.289292,3172.00
69.94986,-3.290077,3174.00
69.98314,-3.290338,3176.00
70.01564,-3.291243,3178.00
70.04808,-3.293026,3180.00
70.08264,-3.294669,3182.00
70.11755,-3.295288,3184.00
70.15012,-3.296516,3186.00
70.18459,-3.297793,3188.00
70.21716,-3.298175,3190.00
70.25147,-3.298484,3192.00
70.28458,-3.299447,3194.00
70.31259,-3.300284,3196.00
70.34891,-3.301217,3198.00
70.38376,-3.302855,3200.00
70.41661,-3.303776,3202.00
70.44991,-3.304811,3204.00
70.48162,-3.306075,3206.00
70.51356,-3.307673,3208.00
70.54636,-3.308726,3210.00
70.57790,-3.309755,3212.00
70.61174,-3.310541,3214.00
70.64622,-3.311861,3216.00
70.67950,-3.312874,3218.00
70.71363,-3.313204,3220.00
70.74553,-3.314093,3222.00
70.77604,-3.315274,3224.00
70.81142,-3.316622,3226.00
70.84577,-3.317283,3228.00
70.88008,-3.317549,3230.00
70.91045,-3.318109,3232.00
70.94521,-3.318782,3234.00
70.97968,-3.319489,3236.00
71.01257,-3.320662,3238.00
71.04559,-3.322514,3240.00
71.08029,-3.323575,3242.00
71.11178,-3.324253,3244.00
71.14472,-3.325034,3246.00
71.17946,-3.326309,3248.00
71.21601,-3.327348,3250.00
71.24577,-3.327993,3252.00
71.28009,-3.328435,3254.00
71.31321,-3.328979,3256.00
71.34572,-3.329637,3258.00
71.37971,-3.330484,3260.00
71.41268,-3.331204,3262.00
71.44471,-3.332455,3264.00
71.47714,-3.333266,3266.00
71.50947,-3.333695,3268.00
71.54374,-3.334394,3270.00
71.57779,-3.336175,3272.00
71.61008,-3.336551,3274.00
71.64344,-3.337115,3276.00
71.67928,-3.338205,3278.00
71.71063,-3.339408,3280.00
71.74510,-3.340126,3282.00
71.77581,-3.340998,3284.00
71.81031,-3.342425,3286.00
71.84356,-3.343877,3288.00
71.87452,-3.344813,3290.00
71.90871,-3.345275,3292.00
71.94419,-3.345448,3294.00
71.97664,-3.345652,3296.00
72.00995,-3.346632,3298.00
72.04284,-3.347406,3300.00
72.07834,-3.347869,3302.00
72.11182,-3.348777,3304.00
72.14388,-3.349727,3306.00
72.17583,-3.350194,3308.00
72.21039,-3.350606,3310.00
72.24239,-3.351917,3312.00
72.27525,-3.352499,3314.00
72.30675,-3.353145,3316.00
72.34244,-3.354304,3318.00
72.37332,-3.355258,3320.00
72.40936,-3.356005,3322.00
72.43975,-3.357002,3324.00
72.47193,-3.357235,3326.00
72.50610,-3.357598,3328.00
72.53974,-3.357847,3330.00
72.57264,-3.357477,3332.00
72.60712,-3.357526,3334.00
72.63991,-3.357219,3336.00
72.67153,-3.356696,3338.00
72.70555,-3.356449,3340.00
72.73779,-3.356439,3342.00
72.77156,-3.356256,3344.00
72.80579,-3.355682,3346.00
72.83691,-3.354528,3348.00
72.87080,-3.353925,3350.00
72.90575,-3.352549,3352.00
72.93924,-3.349898,3354.00
72.97147,-3.346304,3356.00
73.00520,-3.342642,3358.00
73.03741,-3.337334,3360.00
73.06969,-3.330307,3362.00
73.10254,-3.320706,3364.00
73.13260,-3.308049,3366.00
73.16679,-3.292032,3368.00
73.20137,-3.269620,3370.00
73.23519,-3.237905,3372.00
73.26658,-3.193075,3374.00
73.29945,-3.129895,3376.00
73.33560,-3.039729,3378.00
73.36831,-2.910013,3380.00
73.40078,-2.723329,3382.00
73.43329,-2.444881,3384.00
73.46690,-2.017128,3386.00
73.50087,-1.367660,3388.00
73.53310,-0.468122,3390.00
73.56571,0.589397,3392.00
73.60003,1.428888,3394.00
73.63310,1.588896,3396.00
73.66659,1.115279,3398.00
73.69942,0.336289,3400.00
73.73266,-0.436642,3402.00
73.76617,-1.071065,3404.00
73.79846,-1.564979,3406.00
73.82889,-1.949092,3408.00
73.86523,-2.250558,3410.00
73.89850,-2.489039,3412.00
73.93042,-2.678410,3414.00
73.96567,-2.829382,3416.00
73.99807,-2.950762,3418.00
74.03284,-3.047407,3420.00
74.06542,-3.124558,3422.00
74.09969,-3.186049,3424.00
74.13141,-3.235896,3426.00
74.16674,-3.275112,3428.00
74.19849,-3.306263,3430.00
74.23150,-3.330408,3432.00
74.26459,-3.350501,3434.00
74.29759,-3.366216,3436.00
74.33133,-3.378619,3438.00
74.36450,-3.388277,3440.00
74.39900,-3.395377,3442.00
74.43133,-3.400420,3444.00
74.46472,-3.405256,3446.00
74.49870,-3.409364,3448.00
74.53063,-3.411386,3450.00
74.56360,-3.412768,3452.00
74.59757,-3.414421,3454.00
74.63098,-3.414564,3456.00
74.66571,-3.413626,3458.00
74.69867,-3.412467,3460.00
74.73068,-3.411333,3462.00
74.76421,-3.409279,3464.00
74.79711,-3.406238,3466.00
74.83259,-3.402544,3468.00
74.86505,-3.398590,3470.00
74.89762,-3.393850,3472.00
74.93070,-3.389414,3474.00
74.96214,-3.384103,3476.00
74.99566,-3.377400,3478.00
75.03127,-3.367672,3480.00
75.06324,-3.356310,3482.00
75.09626,-3.345244,3484.00
75.13151,-3.332677,3486.00
75.16234,-3.316333,3488.00
75.19552,-3.297565,3490.00
75.23033,-3.275312,3492.00
75.26150,-3.247904,3494.00
75.29643,-3.215689,3496.00
75.32869,-3.175831,3498.00
75.36071,-3.126518,3500.00
75.39495,-3.065711,3502.00
75.43008,-2.987881,3504.00
75.46190,-2.886713,3506.00
75.49296,-2.753490,3508.00
75.52794,-2.573574,3510.00
75.55724,-2.322386,3512.00
75.59128,-1.959698,3514.00
75.62356,-1.418934,3516.00
75.65717,-0.598947,3518.00
75.69063,0.629293,3520.00
75.72375,2.397670,3522.00
75.75736,4.826742,3524.00
75.78974,7.784071,3526.00
75.82075,10.430883,3528.00
75.85208,10.997065,3530.00
75.88828,9.325809,3532.00
75.92003,6.772283,3534.00
75.95455,4.496580,3536.00
75.98980,2.765498,3538.00
76.02316,1.450982,3540.00
76.05874,0.433367,3542.00
76.09008,-0.366116,3544.00
76.12656,-1.005803,3546.00
76.15693,-1.524283,3548.00
76.19034,-1.943493,3550.00
76.22278,-2.281454,3552.00
76.25513,-2.553694,3554.00
76.28781,-2.771772,3556.00
76.32101,-2.946337,3558.00
76.35441,-3.086839,3560.00
76.38829,-3.198925,3562.00
76.42165,-3.288815,3564.00
76.45375,-3.361324,3566.00
76.48727,-3.419339,3568.00
76.52061,-3.466142,3570.00
76.55303,-3.504406,3572.00
76.58750,-3.535025,3574.00
76.61972,-3.559776,3576.00
76.65155,-3.579594,3578.00
76.68799,-3.595193,3580.00
76.71993,-3.608246,3582.00
76.75459,-3.618995,3584.00
76.78680,-3.627293,3586.00
76.81866,-3.635390,3588.00
76.85151,-3.642204,3590.00
76.88573,-3.647744,3592.00
76.91949,-3.652581,3594.00
76.94952,-3.657180,3596.00
76.98359,-3.661037,3598.00
77.01792,-3.664557,3600.00
77.04886,-3.667967,3602.00
77.08257,-3.671301,3604.00
77.11690,-3.675061,3606.00
77.14944,-3.678104,3608.00
77.18193,-3.681446,3610.00
77.21696,-3.684378,3612.00
77.24998,-3.686606,3614.00
77.28479,-3.688606,3616.00
77.31752,-3.691233,3618.00
77.35081,-3.693737,3620.00
77.38247,-3.696137,3622.00
77.41544,-3.698497,3624.00
77.44932,-3.701146,3626.00
77.48078,-3.703693,3628.00
77.51634,-3.705887,3630.00
77.54852,-3.707920,3632.00
77.58247,-3.710320,3634.00
77.61645,-3.713556,3636.00
77.64646,-3.716543,3638.00
77.68007,-3.720647,3640.00
77.71152,-3.723207,3642.00
77.74681,-3.725958,3644.00
77.78113,-3.728445,3646.00
77.81411,-3.730569,3648.00
77.84709,-3.732801,3650.00
77.87807,-3.735113,3652.00
77.91296,-3.737635,3654.00
77.94843,-3.739471,3656.00
77.98120,-3.740844,3658.00
78.01304,-3.742532,3660.00
78.04743,-3.744605,3662.00
78.08165,-3.746596,3664.00
78.11559,-3.748667,3666.00
78.14873,-3.749939,3668.00
78.18152,-3.751935,3670.00
78.21399,-3.754317,3672.00
78.24715,-3.755837,3674.00
78.27938,-3.755245,3676.00
78.31031,-3.756418,3678.00
78.34532,-3.759880,3680.00
78.37694,-3.764524,3682.00
78.41160,-3.769179,3684.00
78.44402,-3.773745,3686.00
78.47718,-3.777442,3688.00
78.50985,-3.781191,3690.00
78.54356,-3.784358,3692.00
78.57615,-3.787938,3694.00
78.60888,-3.791410,3696.00
78.64207,-3.793729,3698.00
78.67781,-3.795578,3700.00
78.71040,-3.797991,3702.00
78.74307,-3.800761,3704.00
78.77614,-3.803438,3706.00
78.80871,-3.806521,3708.00
78.84233,-3.810212,3710.00
78.87830,-3.814094,3712.00
78.90879,-3.817019,3714.00
78.93954,-3.820118,3716.00
78.97590,-3.823582,3718.00
79.00914,-3.826579,3720.00
79.04716,-3.830229,3722.00
79.07897,-3.833753,3724.00
79.11213,-3.837332,3726.00
79.14322,-3.840796,3728.00
79.17773,-3.843812,3730.00
79.21403,-3.846087,3732.00
79.24887,-3.849192,3734.00
79.28335,-3.852141,3736.00
79.31465,-3.854675,3738.00
79.34457,-3.858187,3740.00
79.37765,-3.860627,3742.00
79.41320,-3.862365,3744.00
79.44592,-3.864463,3746.00
79.47737,-3.867918,3748.00
79.51035,-3.871850,3750.00
79.54398,-3.877992,3752.00
79.57733,-3.884750,3754.00
79.61056,-3.888114,3756.00
79.64331,-3.890345,3758.00
79.67858,-3.892733,3760.00
79.71094,-3.894269,3762.00
79.74117,-3.895918,3764.00
79.77665,-3.897950,3766.00
79.80948,-3.899788,3768.00
79.84206,-3.902507,3770.00
79.87465,-3.905119,3772.00
79.90900,-3.908094,3774.00
79.94022,-3.909873,3776.00
79.97593,-3.914692,3778.00

