Wavelength	Intensity
nm	arb. units
	500° C
550	89.21
550.25	93.8
550.5	98.39
550.75	102.98
551	107.57
551.25	109.29
551.5	111.01
551.75	112.73
552	114.45
552.25	113.4475
552.5	112.445
552.75	111.4425
553	110.44
553.25	109.58
553.5	108.72
553.75	107.86
554	107
554.25	110.7275
554.5	114.455
554.75	118.1825
555	121.91
555.25	116.7475
555.5	111.585
555.75	106.4225
556	101.26
556.25	103.985
556.5	106.71
556.75	109.435
557	112.16
557.25	111.0125
557.5	109.865
557.75	108.7175
558	107.57
558.25	106.995
558.5	106.42
558.75	105.845
559	105.27
559.25	104.555
559.5	103.84
559.75	103.125
560	102.41
560.25	105.565
560.5	108.72
560.75	111.875
561	115.03
561.25	114.1675
561.5	113.305
561.75	112.4425
562	111.58
562.25	109.1425
562.5	106.705
562.75	104.2675
563	101.83
563.25	106.85
563.5	111.87
563.75	116.89
564	121.91
564.25	115.7425
564.5	109.575
564.75	103.4075
565	97.24
565.25	100.6825
565.5	104.125
565.75	107.5675
566	111.01
566.25	111.1525
566.5	111.295
566.75	111.4375
567	111.58
567.25	106.13
567.5	100.68
567.75	95.23
568	89.78
568.25	94.2275
568.5	98.675
568.75	103.1225
569	107.57
569.25	108.7175
569.5	109.865
569.75	111.0125
570	112.16
570.25	108.2875
570.5	104.415
570.75	100.5425
571	96.67
571.25	99.2525
571.5	101.835
571.75	104.4175
572	107
572.25	110.7275
572.5	114.455
572.75	118.1825
573	121.91
573.25	121.98125
573.5	122.0525
573.75	122.12375
574	122.195
574.25	122.26625
574.5	122.3375
574.75	122.40875
575	122.48
575.25	120.4725
575.5	118.465
575.75	116.4575
576	114.45
576.25	117.32
576.5	120.19
576.75	123.06
577	125.93
577.25	126.215
577.5	126.5
577.75	126.785
578	127.07
578.25	124.06
578.5	121.05
578.75	118.04
579	115.03
579.25	120.1925
579.5	125.355
579.75	130.5175
580	135.68
580.25	136.6825
580.5	137.685
580.75	138.6875
581	139.69
581.25	135.82
581.5	131.95
581.75	128.08
582	124.21
582.25	131.5225
582.5	138.835
582.75	146.1475
583	153.46
583.25	151.8825
583.5	150.305
583.75	148.7275
584	147.15
584.25	150.305
584.5	153.46
584.75	156.615
585	159.77
585.25	161.3475
585.5	162.925
585.75	164.5025
586	166.08
586.25	164.36
586.5	162.64
586.75	160.92
587	159.2
587.25	161.495
587.5	163.79
587.75	166.085
588	168.38
588.25	172.395
588.5	176.41
588.75	180.425
589	184.44
589.25	184.44
589.5	184.44
589.75	184.44
590	184.44
590.25	187.4525
590.5	190.465
590.75	193.4775
591	196.49
591.25	194.9125
591.5	193.335
591.75	191.7575
592	190.18
592.25	189.4625
592.5	188.745
592.75	188.0275
593	187.31
593.25	189.605
593.5	191.9
593.75	194.195
594	196.49
594.25	201.365
594.5	206.24
594.75	211.115
595	215.99
595.25	212.835
595.5	209.68
595.75	206.525
596	203.37
596.25	206.955
596.5	210.54
596.75	214.125
597	217.71
597.25	220.435
597.5	223.16
597.75	225.885
598	228.61
598.25	223.16
598.5	217.71
598.75	212.26
599	206.81
599.25	212.26
599.5	217.71
599.75	223.16
600	228.61
600.25	233.2
600.5	237.79
600.75	242.38
601	246.97
601.25	244.9625
601.5	242.955
601.75	240.9475
602	238.94
602.25	236.9325
602.5	234.925
602.75	232.9175
603	230.91
603.25	232.4875
603.5	234.065
603.75	235.6425
604	237.22
604.25	240.23
604.5	243.24
604.75	246.25
605	249.26
605.25	246.68
605.5	244.1
605.75	241.52
606	238.94
606.25	244.5325
606.5	250.125
606.75	255.7175
607	261.31
607.25	263.8925
607.5	266.475
607.75	269.0575
608	271.64
608.25	268.34
608.5	265.04
608.75	261.74
609	258.44
609.25	263.1725
609.5	267.905
609.75	272.6375
610	277.37
610.25	278.6625
610.5	279.955
610.75	281.2475
611	282.54
611.25	281.105
611.5	279.67
611.75	278.235
612	276.8
612.25	278.8075
612.5	280.815
612.75	282.8225
613	284.83
613.25	288.415
613.5	292
613.75	295.585
614	299.17
614.25	294.725
614.5	290.28
614.75	285.835
615	281.39
615.25	287.5575
615.5	293.725
615.75	299.8925
616	306.06
616.25	300.7525
616.5	295.445
616.75	290.1375
617	284.83
617.25	286.5525
617.5	288.275
617.75	289.9975
618	291.72
618.25	290.8575
618.5	289.995
618.75	289.1325
619	288.27
619.25	290.4225
619.5	292.575
619.75	294.7275
620	296.88
620.25	289.565
620.5	282.25
620.75	274.935
621	267.62
621.25	273.3575
621.5	279.095
621.75	284.8325
622	290.57
622.25	292.5775
622.5	294.585
622.75	296.5925
623	298.6
623.25	297.74
623.5	296.88
623.75	296.02
624	295.16
624.25	295.4475
624.5	295.735
624.75	296.0225
625	296.31
625.25	291.72
625.5	287.13
625.75	282.54
626	277.95
626.25	281.8225
626.5	285.695
626.75	289.5675
627	293.44
627.25	292.865
627.5	292.29
627.75	291.715
628	291.14
628.25	288.845
628.5	286.55
628.75	284.255
629	281.96
629.25	277.945
629.5	273.93
629.75	269.915
630	265.9
630.25	269.2
630.5	272.5
630.75	275.8
631	279.1
631.25	277.88
631.5	276.66
631.75	275.44
632	274.22
632.25	273
632.5	271.78
632.75	270.56
633	269.34
633.25	265.325
633.5	261.31
633.75	257.295
634	253.28
634.25	253.8525
634.5	254.425
634.75	254.9975
635	255.57
635.25	255.57
635.5	255.57
635.75	255.57
636	255.57
636.25	251.985
636.5	248.4
636.75	244.815
637	241.23
637.25	244.815
637.5	248.4
637.75	251.985
638	255.57
638.25	250.265
638.5	244.96
638.75	239.655
639	234.35
639.25	230.335
639.5	226.32
639.75	222.305
640	218.29
640.25	221.1575
640.5	224.025
640.75	226.8925
641	229.76
641.25	228.1825
641.5	226.605
641.75	225.0275
642	223.45
642.25	220.5825
642.5	217.715
642.75	214.8475
643	211.98
643.25	214.99
643.5	218
643.75	221.01
644	224.02
644.25	225.1675
644.5	226.315
644.75	227.4625
645	228.61
645.25	219.4325
645.5	210.255
645.75	201.0775
646	191.9
646.25	198.64
646.5	205.38
646.75	212.12
647	218.86
647.25	219.4325
647.5	220.005
647.75	220.5775
648	221.15
648.25	224.02
648.5	226.89
648.75	229.76
649	232.63
649.25	232.9175
649.5	233.205
649.75	233.4925
650	233.78
650.25	237.22
650.5	240.66
650.75	244.1
651	247.54
651.25	242.3775
651.5	237.215
651.75	232.0525
652	226.89
652.25	236.2125
652.5	245.535
652.75	254.8575
653	264.18
653.25	264.3225
653.5	264.465
653.75	264.6075
654	264.75
654.25	266.7575
654.5	268.765
654.75	270.7725
655	272.78
655.25	279.3775
655.5	285.975
655.75	292.5725
656	299.17
656.25	302.6125
656.5	306.055
656.75	309.4975
657	312.94
657.25	313.2275
657.5	313.515
657.75	313.8025
658	314.09
658.25	320.1125
658.5	326.135
658.75	332.1575
659	338.18
659.25	339.3275
659.5	340.475
659.75	341.6225
660	342.77
660.25	342.6275
660.5	342.485
660.75	342.3425
661	342.2
661.25	348.7975
661.5	355.395
661.75	361.9925
662	368.59
662.25	370.1675
662.5	371.745
662.75	373.3225
663	374.9
663.25	376.4775
663.5	378.055
663.75	379.6325
664	381.21
664.25	381.9275
664.5	382.645
664.75	383.3625
665	384.08
665.25	390.245
665.5	396.41
665.75	402.575
666	408.74
666.25	405.155
666.5	401.57
666.75	397.985
667	394.4
667.25	399.2775
667.5	404.155
667.75	409.0325
668	413.91
668.25	417.7825
668.5	421.655
668.75	425.5275
669	429.4
669.25	429.255
669.5	429.11
669.75	428.965
670	428.82
670.25	424.6625
670.5	420.505
670.75	416.3475
671	412.19
671.25	420.5075
671.5	428.825
671.75	437.1425
672	445.46
672.25	441.015
672.5	436.57
672.75	432.125
673	427.68
673.25	426.8175
673.5	425.955
673.75	425.0925
674	424.23
674.25	430.11
674.5	435.99
674.75	441.87
675	447.75
675.25	446.89
675.5	446.03
675.75	445.17
676	444.31
676.25	436.71
676.5	429.11
676.75	421.51
677	413.91
677.25	418.355
677.5	422.8
677.75	427.245
678	431.69
678.25	432.265
678.5	432.84
678.75	433.415
679	433.99
679.25	431.695
679.5	429.4
679.75	427.105
680	424.81
680.25	420.9375
680.5	417.065
680.75	413.1925
681	409.32
681.25	407.7425
681.5	406.165
681.75	404.5875
682	403.01
682.25	398.2775
682.5	393.545
682.75	388.8125
683	384.08
683.25	388.095
683.5	392.11
683.75	396.125
684	400.14
684.25	392.97
684.5	385.8
684.75	378.63
685	371.46
685.25	366.5825
685.5	361.705
685.75	356.8275
686	351.95
686.25	355.965
686.5	359.98
686.75	363.995
687	368.01
687.25	368.155
687.5	368.3
687.75	368.445
688	368.59
688.25	359.41
688.5	350.23
688.75	341.05
689	331.87
689.25	336.46
689.5	341.05
689.75	345.64
690	350.23
690.25	347.3625
690.5	344.495
690.75	341.6275
691	338.76
691.25	336.1775
691.5	333.595
691.75	331.0125
692	328.43
692.25	331.155
692.5	333.88
692.75	336.605
693	339.33
693.25	334.5975
693.5	329.865
693.75	325.1325
694	320.4
694.25	317.675
694.5	314.95
694.75	312.225
695	309.5
695.25	311.14875
695.5	312.7975
695.75	314.44625
696	316.095
696.25	317.74375
696.5	319.3925
696.75	321.04125
697	322.69
697.25	323.8375
697.5	324.985
697.75	326.1325
698	327.28
698.25	324.8425
698.5	322.405
698.75	319.9675
699	317.53
699.25	322.2625
699.5	326.995
699.75	331.7275
700	336.46
700.25	330.725
700.5	324.99
700.75	319.255
701	313.52
701.25	312.6575
701.5	311.795
701.75	310.9325
702	310.07
702.25	316.095
702.5	322.12
702.75	328.145
703	334.17
703.25	325.85
703.5	317.53
703.75	309.21
704	300.89
704.25	303.0425
704.5	305.195
704.75	307.3475
705	309.5
705.25	313.23
705.5	316.96
705.75	320.69
706	324.42
706.25	321.4075
706.5	318.395
706.75	315.3825
707	312.37
707.25	311.795
707.5	311.22
707.75	310.645
708	310.07
708.25	310.215
708.5	310.36
708.75	310.505
709	310.65
709.25	312.5125
709.5	314.375
709.75	316.2375
710	318.1
710.25	314.3725
710.5	310.645
710.75	306.9175
711	303.19
711.25	302.0425
711.5	300.895
711.75	299.7475
712	298.6
712.25	293.0075
712.5	287.415
712.75	281.8225
713	276.23
713.25	279.0975
713.5	281.965
713.75	284.8325
714	287.7
714.25	289.7075
714.5	291.715
714.75	293.7225
715	295.73
715.25	291.715
715.5	287.7
715.75	283.685
716	279.67
716.25	277.805
716.5	275.94
716.75	274.075
717	272.21
717.25	273.3575
717.5	274.505
717.75	275.6525
718	276.8
718.25	272.355
718.5	267.91
718.75	263.465
719	259.02
719.25	261.0275
719.5	263.035
719.75	265.0425
720	267.05
720.25	268.0525
720.5	269.055
720.75	270.0575
721	271.06
721.25	269.0525
721.5	267.045
721.75	265.0375
722	263.03
722.25	262.0275
722.5	261.025
722.75	260.0225
723	259.02
723.25	265.6175
723.5	272.215
723.75	278.8125
724	285.41
724.25	279.385
724.5	273.36
724.75	267.335
725	261.31
725.25	262.0275
725.5	262.745
725.75	263.4625
726	264.18
726.25	271.78
726.5	279.38
726.75	286.98
727	294.58
727.25	289.9925
727.5	285.405
727.75	280.8175
728	276.23
728.25	280.1025
728.5	283.975
728.75	287.8475
729	291.72
729.25	300.4675
729.5	309.215
729.75	317.9625
730	326.71
730.25	323.125
730.5	319.54
730.75	315.955
731	312.37
731.25	308.785
731.5	305.2
731.75	301.615
732	298.03
732.25	303.765
732.5	309.5
732.75	315.235
733	320.97
733.25	327.1375
733.5	333.305
733.75	339.4725
734	345.64
734.25	348.6525
734.5	351.665
734.75	354.6775
735	357.69
735.25	358.98
735.5	360.27
735.75	361.56
736	362.85
736.25	374.755
736.5	386.66
736.75	398.565
737	410.47
737.25	417.21
737.5	423.95
737.75	430.69
738	437.43
738.25	442.1625
738.5	446.895
738.75	451.6275
739	456.36
739.25	465.1075
739.5	473.855
739.75	482.6025
740	491.35
740.25	495.365
740.5	499.38
740.75	503.395
741	507.41
741.25	516.16
741.5	524.91
741.75	533.66
742	542.41
742.25	555.3175
742.5	568.225
742.75	581.1325
743	594.04
743.25	600.0625
743.5	606.085
743.75	612.1075
744	618.13
744.25	622.4325
744.5	626.735
744.75	631.0375
745	635.34
745.25	649.1075
745.5	662.875
745.75	676.6425
746	690.41
746.25	699.7325
746.5	709.055
746.75	718.3775
747	727.7
747.25	738.8875
747.5	750.075
747.75	761.2625
748	772.45
748.25	786.3625
748.5	800.275
748.75	814.1875
749	828.1
749.25	834.41
749.5	840.72
749.75	847.03
750	853.34
750.25	862.66
750.5	871.98
750.75	881.3
751	890.62
751.25	904.675
751.5	918.73
751.75	932.785
752	946.84
752.25	952.865
752.5	958.89
752.75	964.915
753	970.94
753.25	981.9825
753.5	993.025
753.75	1004.0675
754	1015.11
754.25	1020.8475
754.5	1026.585
754.75	1032.3225
755	1038.06
755.25	1045.23
755.5	1052.4
755.75	1059.57
756	1066.74
756.25	1075.2025
756.5	1083.665
756.75	1092.1275
757	1100.59
757.25	1107.33
757.5	1114.07
757.75	1120.81
758	1127.55
758.25	1134.865
758.5	1142.18
758.75	1149.495
759	1156.81
759.25	1160.395
759.5	1163.98
759.75	1167.565
760	1171.15
760.25	1177.6025
760.5	1184.055
760.75	1190.5075
761	1196.96
761.25	1194.665
761.5	1192.37
761.75	1190.075
762	1187.78
762.25	1190.075
762.5	1192.37
762.75	1194.665
763	1196.96
763.25	1202.41
763.5	1207.86
763.75	1213.31
764	1218.76
764.25	1211.3025
764.5	1203.845
764.75	1196.3875
765	1188.93
765.25	1189.935
765.5	1190.94
765.75	1191.945
766	1192.95
766.25	1193.38
766.5	1193.81
766.75	1194.24
767	1194.67
767.25	1190.3675
767.5	1186.065
767.75	1181.7625
768	1177.46
768.25	1174.305
768.5	1171.15
768.75	1167.995
769	1164.84
769.25	1163.1175
769.5	1161.395
769.75	1159.6725
770	1157.95
770.25	1151.35375
770.5	1144.7575
770.75	1138.16125
771	1131.565
771.25	1124.96875
771.5	1118.3725
771.75	1111.77625
772	1105.18
772.25	1105.18
772.5	1105.18
772.75	1105.18
773	1105.18
773.25	1095.57
773.5	1085.96
773.75	1076.35
774	1066.74
774.25	1061.72
774.5	1056.7
774.75	1051.68
775	1046.66
775.25	1037.4825
775.5	1028.305
775.75	1019.1275
776	1009.95
776.25	1005.36
776.5	1000.77
776.75	996.18
777	991.59
777.25	977.2475
777.5	962.905
777.75	948.5625
778	934.22
778.25	930.0625
778.5	925.905
778.75	921.7475
779	917.59
779.25	910.8475
779.5	904.105
779.75	897.3625
780	890.62
780.25	881.155
780.5	871.69
780.75	862.225
781	852.76
781.25	845.16
781.5	837.56
781.75	829.96
782	822.36
782.25	816.48
782.5	810.6
782.75	804.72
783	798.84
783.25	786.935
783.5	775.03
783.75	763.125
784	751.22
784.25	750.36
784.5	749.5
784.75	748.64
785	747.78
785.25	740.8975
785.5	734.015
785.75	727.1325
786	720.25
786.25	711.2125
786.5	702.175
786.75	693.1375
787	684.1
787.25	680.515
787.5	676.93
787.75	673.345
788	669.76
788.25	667.61
788.5	665.46
788.75	663.31
789	661.16
789.25	646.3875
789.5	631.615
789.75	616.8425
790	602.07
790.25	602.93
790.5	603.79
790.75	604.65
791	605.51
791.25	602.93
791.5	600.35
791.75	597.77
792	595.19
792.25	588.4475
792.5	581.705
792.75	574.9625
793	568.22
793.25	563.345
793.5	558.47
793.75	553.595
794	548.72
794.25	552.88
794.5	557.04
794.75	561.2
795	565.36
795.25	556.18
795.5	547
795.75	537.82
796	528.64
796.25	529.5
796.5	530.36
796.75	531.22
797	532.08
797.25	534.805
797.5	537.53
797.75	540.255
798	542.98
798.25	540.1125
798.5	537.245
798.75	534.3775
799	531.51
799.25	531.94
799.5	532.37
799.75	532.8
800	533.23
800.25	536.815
800.5	540.4
800.75	543.985
801	547.57
801.25	540.83
801.5	534.09
801.75	527.35
802	520.61
802.25	529.3575
802.5	538.105
802.75	546.8525
803	555.6
803.25	555.0275
803.5	554.455
803.75	553.8825
804	553.31
804.25	552.735
804.5	552.16
804.75	551.585
805	551.01
805.25	557.1775
805.5	563.345
805.75	569.5125
806	575.68
806.25	581.56
806.5	587.44
806.75	593.32
807	599.2
807.25	597.335
807.5	595.47
807.75	593.605
808	591.74
808.25	593.75
808.5	595.76
808.75	597.77
809	599.78
809.25	606.09
809.5	612.4
809.75	618.71
810	625.02
810.25	626.74
810.5	628.46
810.75	630.18
811	631.9
811.25	638.21
811.5	644.52
811.75	650.83
812	657.14
812.25	664.7425
812.5	672.345
812.75	679.9475
813	687.55
813.25	685.3975
813.5	683.245
813.75	681.0925
814	678.94
814.25	687.115
814.5	695.29
814.75	703.465
815	711.64
815.25	711.06625
815.5	710.4925
815.75	709.91875
816	709.345
816.25	708.77125
816.5	708.1975
816.75	707.62375
817	707.05
817.25	708.915
817.5	710.78
817.75	712.645
818	714.51
818.25	719.385
818.5	724.26
818.75	729.135
819	734.01
819.25	736.735
819.5	739.46
819.75	742.185
820	744.91
820.25	740.035
820.5	735.16
820.75	730.285
821	725.41
821.25	729.855
821.5	734.3
821.75	738.745
822	743.19
822.25	744.625
822.5	746.06
822.75	747.495
823	748.93
823.25	746.635
823.5	744.34
823.75	742.045
824	739.75
824.25	741.47
824.5	743.19
824.75	744.91
825	746.63
825.25	749.6425
825.5	752.655
825.75	755.6675
826	758.68
826.25	752.37
826.5	746.06
826.75	739.75
827	733.44
827.25	735.59
827.5	737.74
827.75	739.89
828	742.04
828.25	741.61
828.5	741.18
828.75	740.75
829	740.32
829.25	736.88
829.5	733.44
829.75	730
830	726.56
830.25	724.695
830.5	722.83
830.75	720.965
831	719.1
831.25	719.6725
831.5	720.245
831.75	720.8175
832	721.39
832.25	716.085
832.5	710.78
832.75	705.475
833	700.17
833.25	699.0225
833.5	697.875
833.75	696.7275
834	695.58
834.25	693.285
834.5	690.99
834.75	688.695
835	686.4
835.25	682.67
835.5	678.94
835.75	675.21
836	671.48
836.25	664.885
836.5	658.29
836.75	651.695
837	645.1
837.25	644.955
837.5	644.81
837.75	644.665
838	644.52
838.25	640.075
838.5	635.63
838.75	631.185
839	626.74
839.25	626.74
839.5	626.74
839.75	626.74
840	626.74
840.25	622.0075
840.5	617.275
840.75	612.5425
841	607.81
841.25	601.0675
841.5	594.325
841.75	587.5825
842	580.84
842.25	581.845
842.5	582.85
842.75	583.855
843	584.86
843.25	581.705
843.5	578.55
843.75	575.395
844	572.24
844.25	563.4925
844.5	554.745
844.75	545.9975
845	537.25
845.25	540.405
845.5	543.56
845.75	546.715
846	549.87
846.25	545.28
846.5	540.69
846.75	536.1
847	531.51
847.25	526.2025
847.5	520.895
847.75	515.5875
848	510.28
848.25	510.855
848.5	511.43
848.75	512.005
849	512.58
849.25	514.3
849.5	516.02
849.75	517.74
850	519.46
850.25	511.43
850.5	503.4
850.75	495.37
851	487.34
851.25	490.2075
851.5	493.075
851.75	495.9425
852	498.81
852.25	495.655
852.5	492.5
852.75	489.345
853	486.19
853.25	481.4575
853.5	476.725
853.75	471.9925
854	467.26
854.25	466.1125
854.5	464.965
854.75	463.8175
855	462.67
855.25	461.665
855.5	460.66
855.75	459.655
856	458.65
856.25	454.4925
856.5	450.335
856.75	446.1775
857	442.02
857.25	445.605
857.5	449.19
857.75	452.775
858	456.36
858.25	451.0525
858.5	445.745
858.75	440.4375
859	435.13
859.25	429.68
859.5	424.23
859.75	418.78
860	413.33
860.25	418.78
860.5	424.23
860.75	429.68
861	435.13
861.25	432.12
861.5	429.11
861.75	426.1
862	423.09
862.25	418.93
862.5	414.77
862.75	410.61
863	406.45
863.25	408.4575
863.5	410.465
863.75	412.4725
864	414.48
864.25	416.775
864.5	419.07
864.75	421.365
865	423.66
865.25	418.3525
865.5	413.045
865.75	407.7375
866	402.43
866.25	408.7425
866.5	415.055
866.75	421.3675
867	427.68
867.25	427.8225
867.5	427.965
867.75	428.1075
868	428.25
868.25	425.3825
868.5	422.515
868.75	419.6475
869	416.78
869.25	419.6475
869.5	422.515
869.75	425.3825
870	428.25
870.25	429.97125
870.5	431.6925
870.75	433.41375
871	435.135
871.25	436.85625
871.5	438.5775
871.75	440.29875
872	442.02
872.25	440.155
872.5	438.29
872.75	436.425
873	434.56
873.25	442.0175
873.5	449.475
873.75	456.9325
874	464.39
874.25	463.53
874.5	462.67
874.75	461.81
875	460.95
875.25	465.54
875.5	470.13
875.75	474.72
876	479.31
876.25	483.755
876.5	488.2
876.75	492.645
877	497.09
877.25	499.9575
877.5	502.825
877.75	505.6925
878	508.56
878.25	510.9975
878.5	513.435
878.75	515.8725
879	518.31
879.25	525.195
879.5	532.08
879.75	538.965
880	545.85
880.25	551.5875
880.5	557.325
880.75	563.0625
881	568.8
881.25	569.3725
881.5	569.945
881.75	570.5175
882	571.09
882.25	581.99
882.5	592.89
882.75	603.79
883	614.69
883.25	618.275
883.5	621.86
883.75	625.445
884	629.03
884.25	632.9025
884.5	636.775
884.75	640.6475
885	644.52
885.25	651.835
885.5	659.15
885.75	666.465
886	673.78
886.25	678.225
886.5	682.67
886.75	687.115
887	691.56
887.25	695.145
887.5	698.73
887.75	702.315
888	705.9
888.25	714.075
888.5	722.25
888.75	730.425
889	738.6
889.25	742.33
889.5	746.06
889.75	749.79
890	753.52
890.25	756.5325
890.5	759.545
890.75	762.5575
891	765.57
891.25	774.3175
891.5	783.065
891.75	791.8125
892	800.56
892.25	803.715
892.5	806.87
892.75	810.025
893	813.18
893.25	815.475
893.5	817.77
893.75	820.065
894	822.36
894.25	832.9725
894.5	843.585
894.75	854.1975
895	864.81
895.25	864.81
895.5	864.81
895.75	864.81
896	864.81
896.25	866.96
896.5	869.11
896.75	871.26
897	873.41
897.25	881.585
897.5	889.76
897.75	897.935
898	906.11
898.25	907.545
898.5	908.98
898.75	910.415
899	911.85
899.25	912.855
899.5	913.86
899.75	914.865
900	915.87
900.25	922.61
900.5	929.35
900.75	936.09
901	942.83
901.25	945.985
901.5	949.14
901.75	952.295
902	955.45
902.25	957.0275
902.5	958.605
902.75	960.1825
903	961.76
903.25	966.35
903.5	970.94
903.75	975.53
904	980.12
904.25	982.9875
904.5	985.855
904.75	988.7225
905	991.59
905.25	986.4275
905.5	981.265
905.75	976.1025
906	970.94
906.25	986.285
906.5	1001.63
906.75	1016.975
907	1032.32
907.25	1024.145
907.5	1015.97
907.75	1007.795
908	999.62
908.25	999.62
908.5	999.62
908.75	999.62
909	999.62
909.25	1002.775
909.5	1005.93
909.75	1009.085
910	1012.24
910.25	1013.3875
910.5	1014.535
910.75	1015.6825
911	1016.83
911.25	1011.955
911.5	1007.08
911.75	1002.205
912	997.33
912.25	1004.5
912.5	1011.67
912.75	1018.84
913	1026.01
913.25	1019.125
913.5	1012.24
913.75	1005.355
914	998.47
914.25	995.89
914.5	993.31
914.75	990.73
915	988.15
915.25	987.0025
915.5	985.855
915.75	984.7075
916	983.56
916.25	981.8375
916.5	980.115
916.75	978.3925
917	976.67
917.25	970.2175
917.5	963.765
917.75	957.3125
918	950.86
918.25	950.5725
918.5	950.285
918.75	949.9975
919	949.71
919.25	941.68
919.5	933.65
919.75	925.62
920	917.59
920.25	917.3025
920.5	917.015
920.75	916.7275
921	916.44
921.25	914.4325
921.5	912.425
921.75	910.4175
922	908.41
922.25	902.385
922.5	896.36
922.75	890.335
923	884.31
923.25	880.1525
923.5	875.995
923.75	871.8375
924	867.68
924.25	864.6675
924.5	861.655
924.75	858.6425
925	855.63
925.25	849.75
925.5	843.87
925.75	837.99
926	832.11
926.25	822.7875
926.5	813.465
926.75	804.1425
927	794.82
927.25	794.39
927.5	793.96
927.75	793.53
928	793.1
928.25	783.205
928.5	773.31
928.75	763.415
929	753.52
929.25	745.345
929.5	737.17
929.75	728.995
930	720.82
930.25	722.97
930.5	725.12
930.75	727.27
931	729.42
931.25	720.1
931.5	710.78
931.75	701.46
932	692.14
932.25	685.9725
932.5	679.805
932.75	673.6375
933	667.47
933.25	667.04
933.5	666.61
933.75	666.18
934	665.75
934.25	658.435
934.5	651.12
934.75	643.805
935	636.49
935.25	628.315
935.5	620.14
935.75	611.965
936	603.79
936.25	600.4925
936.5	597.195
936.75	593.8975
937	590.6
937.25	587.1575
937.5	583.715
937.75	580.2725
938	576.83
938.25	569.3725
938.5	561.915
938.75	554.4575
939	547
939.25	549.15
939.5	551.3
939.75	553.45
940	555.6
940.25	546.565
940.5	537.53
940.75	528.495
941	519.46
941.25	516.735
941.5	514.01
941.75	511.285
942	508.56
942.25	514.2975
942.5	520.035
942.75	525.7725
943	531.51
943.25	520.61
943.5	509.71
943.75	498.81
944	487.91
944.25	487.6225
944.5	487.335
944.75	487.0475
945	486.76
945.25	488.7675
945.5	490.775
945.75	492.7825
946	494.79
946.25	492.71125
946.5	490.6325
946.75	488.55375
947	486.475
947.25	484.39625
947.5	482.3175
947.75	480.23875
948	478.16
948.25	473.2825
948.5	468.405
948.75	463.5275
949	458.65
949.25	466.5375
949.5	474.425
949.75	482.3125
950	490.2
950.25	483.03
950.5	475.86
950.75	468.69
951	461.52
951.25	465.3925
951.5	469.265
951.75	473.1375
952	477.01
952.25	474.285
952.5	471.56
952.75	468.835
953	466.11
953.25	466.11
953.5	466.11
953.75	466.11
954	466.11
954.25	463.0975
954.5	460.085
954.75	457.0725
955	454.06
955.25	459.94
955.5	465.82
955.75	471.7
956	477.58
956.25	473.2775
956.5	468.975
956.75	464.6725
957	460.37
957.25	463.9575
957.5	467.545
957.75	471.1325
958	474.72
958.25	477.875
958.5	481.03
958.75	484.185
959	487.34
959.25	488.7725
959.5	490.205
959.75	491.6375
960	493.07
960.25	487.335
960.5	481.6
960.75	475.865
961	470.13
961.25	478.16
961.5	486.19
961.75	494.22
962	502.25
962.25	494.935
962.5	487.62
962.75	480.305
963	472.99
963.25	476.0025
963.5	479.015
963.75	482.0275
964	485.04
964.25	492.4975
964.5	499.955
964.75	507.4125
965	514.87
965.25	509.995
965.5	505.12
965.75	500.245
966	495.37
966.25	496.0875
966.5	496.805
966.75	497.5225
967	498.24
967.25	502.8275
967.5	507.415
967.75	512.0025
968	516.59
968.25	515.73
968.5	514.87
968.75	514.01
969	513.15
969.25	515.1575
969.5	517.165
969.75	519.1725
970	521.18
970.25	521.4675
970.5	521.755
970.75	522.0425
971	522.33
971.25	520.61
971.5	518.89
971.75	517.17
972	515.45
972.25	511.4325
972.5	507.415
972.75	503.3975
973	499.38
973.25	508.2725
973.5	517.165
973.75	526.0575
974	534.95
974.25	528.21
974.5	521.47
974.75	514.73
975	507.99
975.25	509.9975
975.5	512.005
975.75	514.0125
976	516.02
976.25	515.4475
976.5	514.875
976.75	514.3025
977	513.73
977.25	509.14
977.5	504.55
977.75	499.96
978	495.37
978.25	496.9475
978.5	498.525
978.75	500.1025
979	501.68
979.25	504.5475
979.5	507.415
979.75	510.2825
980	513.15
980.25	503.9725
980.5	494.795
980.75	485.6175
981	476.44
981.25	481.46
981.5	486.48
981.75	491.5
982	496.52
982.25	496.805
982.5	497.09
982.75	497.375
983	497.66
983.25	489.3425
983.5	481.025
983.75	472.7075
984	464.39
984.25	464.5325
984.5	464.675
984.75	464.8175
985	464.96
985.25	470.84
985.5	476.72
985.75	482.6
986	488.48
986.25	480.45
986.5	472.42
986.75	464.39
987	456.36
987.25	455.6425
987.5	454.925
987.75	454.2075
988	453.49
988.25	454.0625
988.5	454.635
988.75	455.2075
989	455.78
989.25	451.91
989.5	448.04
989.75	444.17
990	440.3
990.25	435.8525
990.5	431.405
990.75	426.9575
991	422.51
991.25	423.2275
991.5	423.945
991.75	424.6625
992	425.38
992.25	419.3575
992.5	413.335
992.75	407.3125
993	401.29
993.25	400.4275
993.5	399.565
993.75	398.7025
994	397.84
994.25	402
994.5	406.16
994.75	410.32
995	414.48
